lam(nm) Flux (10^-20 J/s/m2/um)
304.395 1.20755e+06
304.545 1.19674e+06
304.695 1.19674e+06
304.845 1.19674e+06
304.995 1.19674e+06
305.145 1.19674e+06
305.295 1.19674e+06
305.445 1.16454e+06
305.595 1.13233e+06
305.745 1.13233e+06
305.895 1.13233e+06
306.045 1.13233e+06
306.195 1.13233e+06
306.345 1.10702e+06
306.495 1.0817e+06
306.645 1.0817e+06
306.795 1.0817e+06
306.945 1.0817e+06
307.095 1.0817e+06
307.245 1.0817e+06
307.395 1.02698e+06
307.545 972263
307.695 972263
307.845 972263
307.995 972263
308.145 972263
308.295 972263
308.445 929277
308.595 886292
308.745 886292
308.895 886292
309.045 886292
309.195 886292
309.345 957213
309.495 1.02813e+06
309.645 1.02813e+06
309.795 1.02813e+06
309.945 1.02813e+06
310.095 1.02813e+06
310.245 1.02813e+06
310.395 1.1678e+06
310.545 1.30747e+06
310.695 1.30747e+06
310.845 1.30747e+06
310.995 1.30747e+06
311.145 1.30747e+06
311.295 1.30747e+06
311.445 1.2439e+06
311.595 1.18033e+06
311.745 1.18033e+06
311.895 1.18033e+06
312.045 1.18033e+06
312.195 1.18033e+06
312.345 1.17353e+06
312.495 1.16673e+06
312.645 1.16673e+06
312.795 1.16673e+06
312.945 1.16673e+06
313.095 1.16673e+06
313.245 1.16673e+06
313.395 1.17383e+06
313.545 1.18093e+06
313.695 1.18093e+06
313.845 1.18093e+06
313.995 1.18093e+06
314.145 1.18093e+06
314.295 1.18093e+06
314.445 1.16049e+06
314.595 1.14005e+06
314.745 1.14005e+06
314.895 1.14005e+06
315.045 1.14005e+06
315.195 1.14005e+06
315.345 1.12096e+06
315.495 1.10188e+06
315.645 1.10188e+06
315.795 1.10188e+06
315.945 1.10188e+06
316.095 1.10188e+06
316.245 1.10188e+06
316.395 1.12592e+06
316.545 1.14997e+06
316.695 1.14997e+06
316.845 1.14997e+06
316.995 1.14997e+06
317.145 1.14997e+06
317.295 1.14997e+06
317.445 1.12681e+06
317.595 1.10366e+06
317.745 1.10366e+06
317.895 1.10366e+06
318.045 1.10366e+06
318.195 1.10366e+06
318.345 1.06678e+06
318.495 1.02991e+06
318.645 1.02991e+06
318.795 1.02991e+06
318.945 1.02991e+06
319.095 1.02991e+06
319.245 1.02991e+06
319.395 1.05137e+06
319.545 1.07284e+06
319.695 1.07284e+06
319.845 1.07284e+06
319.995 1.07284e+06
320.145 1.07284e+06
320.295 1.07284e+06
320.445 1.04514e+06
320.595 1.01743e+06
320.745 1.01743e+06
320.895 1.01743e+06
321.045 1.01743e+06
321.195 1.01743e+06
321.345 1.00571e+06
321.495 993989
321.645 993989
321.795 993989
321.945 993989
322.095 993989
322.245 993989
322.395 1.03088e+06
322.545 1.06777e+06
322.695 1.06777e+06
322.845 1.06777e+06
322.995 1.06777e+06
323.145 1.06777e+06
323.295 1.06777e+06
323.445 1.04265e+06
323.595 1.01754e+06
323.745 1.01754e+06
323.895 1.01754e+06
324.045 1.01754e+06
324.195 1.01754e+06
324.345 1.0196e+06
324.495 1.02165e+06
324.645 1.02165e+06
324.795 1.02165e+06
324.945 1.02165e+06
325.095 1.02165e+06
325.245 1.02165e+06
325.395 1.02463e+06
325.545 1.02761e+06
325.695 1.02761e+06
325.845 1.02761e+06
325.995 1.02761e+06
326.145 1.02761e+06
326.295 1.02761e+06
326.445 1.05286e+06
326.595 1.0781e+06
326.745 1.0781e+06
326.895 1.0781e+06
327.045 1.0781e+06
327.195 1.0781e+06
327.345 1.09448e+06
327.495 1.11086e+06
327.645 1.11086e+06
327.795 1.11086e+06
327.945 1.11086e+06
328.095 1.11086e+06
328.245 1.11086e+06
328.395 1.1243e+06
328.545 1.13774e+06
328.695 1.13774e+06
328.845 1.13774e+06
328.995 1.13774e+06
329.145 1.13774e+06
329.295 1.13774e+06
329.445 1.12826e+06
329.595 1.11878e+06
329.745 1.11878e+06
329.895 1.11878e+06
330.045 1.11878e+06
330.195 1.11878e+06
330.345 1.06255e+06
330.495 1.00632e+06
330.645 1.00632e+06
330.795 1.00632e+06
330.945 1.00632e+06
331.095 1.00632e+06
331.245 1.00632e+06
331.395 1.0363e+06
331.545 1.06627e+06
331.695 1.06627e+06
331.845 1.06627e+06
331.995 1.06627e+06
332.145 1.06627e+06
332.295 1.06627e+06
332.445 1.07561e+06
332.595 1.08494e+06
332.745 1.08494e+06
332.895 1.08494e+06
333.045 1.08494e+06
333.195 1.08494e+06
333.345 1.03019e+06
333.495 975441
333.645 975441
333.795 975441
333.945 975441
334.095 975441
334.245 975441
334.395 997134
334.545 1.01883e+06
334.695 1.01883e+06
334.845 1.01883e+06
334.995 1.01883e+06
335.145 1.01883e+06
335.295 1.01883e+06
335.445 1.041e+06
335.595 1.06316e+06
335.745 1.06316e+06
335.895 1.06316e+06
336.045 1.06316e+06
336.195 1.06316e+06
336.345 1.04869e+06
336.495 1.03421e+06
336.645 1.03421e+06
336.795 1.03421e+06
336.945 1.03421e+06
337.095 1.03421e+06
337.245 1.03421e+06
337.395 1.01299e+06
337.545 991767
337.695 991767
337.845 991767
337.995 991767
338.145 991767
338.295 991767
338.445 1.00414e+06
338.595 1.0165e+06
338.745 1.0165e+06
338.895 1.0165e+06
339.045 1.0165e+06
339.195 1.0165e+06
339.345 1.01633e+06
339.495 1.01616e+06
339.645 1.01616e+06
339.795 1.01616e+06
339.945 1.01616e+06
340.095 1.01616e+06
340.245 1.01616e+06
340.395 1.01125e+06
340.545 1.00634e+06
340.695 1.00634e+06
340.845 1.00634e+06
340.995 1.00634e+06
341.145 1.00634e+06
341.295 1.00634e+06
341.445 996676
341.595 987011
341.745 987011
341.895 987011
342.045 987011
342.195 987011
342.345 973262
342.495 959514
342.645 959514
342.795 959514
342.945 959514
343.095 959514
343.245 959514
343.395 992847
343.545 1.02618e+06
343.695 1.02618e+06
343.845 1.02618e+06
343.995 1.02618e+06
344.145 1.02618e+06
344.295 1.02618e+06
344.445 1.0092e+06
344.595 992222
344.745 992222
344.895 992222
345.045 992222
345.195 992222
345.345 1.03677e+06
345.495 1.08132e+06
345.645 1.08132e+06
345.795 1.08132e+06
345.945 1.08132e+06
346.095 1.08132e+06
346.245 1.08132e+06
346.395 1.06289e+06
346.545 1.04446e+06
346.695 1.04446e+06
346.845 1.04446e+06
346.995 1.04446e+06
347.145 1.04446e+06
347.295 1.04446e+06
347.445 1.02616e+06
347.595 1.00786e+06
347.745 1.00786e+06
347.895 1.00786e+06
348.045 1.00786e+06
348.195 1.00786e+06
348.345 1.01268e+06
348.495 1.01751e+06
348.645 1.01751e+06
348.795 1.01751e+06
348.945 1.01751e+06
349.095 1.01751e+06
349.245 1.01751e+06
349.395 1.02721e+06
349.545 1.03691e+06
349.695 1.03691e+06
349.845 1.03691e+06
349.995 1.03691e+06
350.145 1.03691e+06
350.295 1.03691e+06
350.445 1.0585e+06
350.595 1.08009e+06
350.745 1.08009e+06
350.895 1.08009e+06
351.045 1.08009e+06
351.195 1.08009e+06
351.345 1.03914e+06
351.495 998184
351.645 998184
351.795 998184
351.945 998184
352.095 998184
352.245 998184
352.395 995050
352.545 991915
352.695 991915
352.845 991915
352.995 991915
353.145 991915
353.295 991915
353.445 975394
353.595 958874
353.745 958874
353.895 958874
354.045 958874
354.195 958874
354.345 903980
354.495 849086
354.645 849086
354.795 849086
354.945 849086
355.095 849086
355.245 849086
355.395 898058
355.545 947029
355.695 947029
355.845 947029
355.995 947029
356.145 947029
356.295 947029
356.445 960934
356.595 974839
356.745 974839
356.895 974839
357.045 974839
357.195 974839
357.345 963416
357.495 951992
357.645 951992
357.795 951992
357.945 951992
358.095 951992
358.245 951992
358.395 946032
358.545 940071
358.695 940071
358.845 940071
358.995 940071
359.145 940071
359.295 940071
359.445 952018
359.595 963965
359.745 963965
359.895 963965
360.045 963965
360.195 963965
360.345 964287
360.495 964609
360.645 964609
360.795 964609
360.945 964609
361.095 964609
361.245 964609
361.395 956290
361.545 947970
361.695 947970
361.845 947970
361.995 947970
362.145 947970
362.295 947970
362.445 938934
362.595 929898
362.745 929898
362.895 929898
363.045 929898
363.195 929898
363.345 926886
363.495 923874
363.645 923874
363.795 923874
363.945 923874
364.095 923874
364.245 923874
364.395 915955
364.545 908037
364.695 908037
364.845 908037
364.995 908037
365.145 908037
365.295 908037
365.445 910575
365.595 913114
365.745 913114
365.895 913114
366.045 913114
366.195 913114
366.345 895262
366.495 877411
366.645 877411
366.795 877411
366.945 877411
367.095 877411
367.245 877411
367.395 879386
367.545 881360
367.695 881360
367.845 881360
367.995 881360
368.145 881360
368.295 881360
368.445 870938
368.595 860517
368.745 860517
368.895 860517
369.045 860517
369.195 860517
369.345 845546
369.495 830574
369.645 830574
369.795 830574
369.945 830574
370.095 830574
370.245 830574
370.395 830021
370.545 829468
370.695 829468
370.845 829468
370.995 829468
371.145 829468
371.295 829468
371.445 828454
371.595 827440
371.745 827440
371.895 827440
372.045 827440
372.195 827440
372.345 835008
372.495 842575
372.645 842575
372.795 842575
372.945 842575
373.095 842575
373.245 842575
373.395 846338
373.545 850101
373.695 850101
373.845 850101
373.995 850101
374.145 850101
374.295 850101
374.445 847166
374.595 844232
374.745 844232
374.895 844232
375.045 844232
375.195 844232
375.345 857958
375.495 871685
375.645 871685
375.795 871685
375.945 871685
376.095 871685
376.245 871685
376.395 854463
376.545 837242
376.695 837242
376.845 837242
376.995 837242
377.145 837242
377.295 837242
377.445 822828
377.595 808415
377.745 808415
377.895 808415
378.045 808415
378.195 808415
378.345 812317
378.495 816220
378.645 816220
378.795 816220
378.945 816220
379.095 816220
379.245 816220
379.395 828917
379.545 841614
379.695 841614
379.845 841614
379.995 841614
380.145 841614
380.295 841614
380.445 893714
380.595 945814
380.745 945814
380.895 945814
381.045 945814
381.195 945814
381.345 930697
381.495 915579
381.645 915579
381.795 915579
381.945 915579
382.095 915579
382.245 915579
382.395 845221
382.545 774862
382.695 774862
382.845 774862
382.995 774862
383.145 774862
383.295 774862
383.445 753973
383.595 733085
383.745 733085
383.895 733085
384.045 733085
384.195 733085
384.345 738302
384.495 743518
384.645 743518
384.795 743518
384.945 743518
385.095 743518
385.245 743518
385.395 728606
385.545 713694
385.695 713694
385.845 713694
385.995 713694
386.145 713694
386.295 713694
386.445 750625
386.595 787556
386.745 787556
386.895 787556
387.045 787556
387.195 787556
387.345 801451
387.495 815346
387.645 815346
387.795 815346
387.945 815346
388.095 815346
388.245 815346
388.395 817130
388.545 818913
388.695 818913
388.845 818913
388.995 818913
389.145 818913
389.295 818913
389.445 804055
389.595 789197
389.745 789197
389.895 789197
390.045 789197
390.195 789197
390.345 770219
390.495 751241
390.645 751241
390.795 751241
390.945 751241
391.095 751241
391.245 751241
391.395 741991
391.545 732741
391.695 732741
391.845 732741
391.995 732741
392.145 732741
392.295 732741
392.445 691043
392.595 649345
392.745 649345
392.895 649345
393.045 649345
393.195 649345
393.345 593289
393.495 537233
393.645 537233
393.795 537233
393.945 537233
394.095 537233
394.245 537233
394.395 545444
394.545 553656
394.695 553656
394.845 553656
394.995 553656
395.145 553656
395.295 553656
395.445 655813
395.595 757971
395.745 757971
395.895 757971
396.045 757971
396.195 757971
396.345 766068
396.495 774164
396.645 774164
396.795 774164
396.945 774164
397.095 774164
397.245 774164
397.395 795587
397.545 817009
397.695 817009
397.845 817009
397.995 817009
398.145 817009
398.295 817009
398.445 836765
398.595 856520
398.745 856520
398.895 856520
399.045 856520
399.195 856520
399.345 807419
399.495 758317
399.645 758317
399.795 758317
399.945 758317
400.095 758317
400.245 758317
400.395 799674
400.545 841031
400.695 841031
400.845 841031
400.995 841031
401.145 841031
401.295 841031
401.445 790393
401.595 739756
401.745 739756
401.895 739756
402.045 739756
402.195 739756
402.345 748591
402.495 757426
402.645 757426
402.795 757426
402.945 757426
403.095 757426
403.245 757426
403.395 736441
403.545 715456
403.695 715456
403.845 715456
403.995 715456
404.145 715456
404.295 715456
404.445 768889
404.595 822322
404.745 822322
404.895 822322
405.045 822322
405.195 822322
405.345 758603
405.495 694884
405.645 694884
405.795 694884
405.945 694884
406.095 694884
406.245 694884
406.395 774006
406.545 853128
406.695 853128
406.845 853128
406.995 853128
407.145 853128
407.295 853128
407.445 823868
407.595 794608
407.745 794608
407.895 794608
408.045 794608
408.195 794608
408.345 760736
408.495 726864
408.645 726864
408.795 726864
408.945 726864
409.095 726864
409.245 726864
409.395 742179
409.545 757493
409.695 757493
409.845 757493
409.995 757493
410.145 757493
410.295 757493
410.445 750760
410.595 744027
410.745 744027
410.895 744027
411.045 744027
411.195 744027
411.345 775711
411.495 807394
411.645 807394
411.795 807394
411.945 807394
412.095 807394
412.245 807394
412.395 759051
412.545 710707
412.695 710707
412.845 710707
412.995 710707
413.145 710707
413.295 710707
413.445 705410
413.595 700113
413.745 700113
413.895 700113
414.045 700113
414.195 700113
414.345 711960
414.495 723806
414.645 723806
414.795 723806
414.945 723806
415.095 723806
415.245 723806
415.395 770785
415.545 817763
415.695 817763
415.845 817763
415.995 817763
416.145 817763
416.295 817763
416.445 778934
416.595 740104
416.745 740104
416.895 740104
417.045 740104
417.195 740104
417.345 727887
417.495 715670
417.645 715670
417.795 715670
417.945 715670
418.095 715670
418.245 715670
418.395 683393
418.545 651116
418.695 651116
418.845 651116
418.995 651116
419.145 651116
419.295 651116
419.445 695902
419.595 740689
419.745 740689
419.895 740689
420.045 740689
420.195 740689
420.345 773736
420.495 806783
420.645 806783
420.795 806783
420.945 806783
421.095 806783
421.245 806783
421.395 782058
421.545 757333
421.695 757333
421.845 757333
421.995 757333
422.145 757333
422.295 757333
422.445 720952
422.595 684570
422.745 684570
422.895 684570
423.045 684570
423.195 684570
423.345 682560
423.495 680549
423.645 680549
423.795 680549
423.945 680549
424.095 680549
424.245 680549
424.395 655686
424.545 630822
424.695 630822
424.845 630822
424.995 630822
425.145 630822
425.295 630822
425.445 667575
425.595 704328
425.745 704328
425.895 704328
426.045 704328
426.195 704328
426.345 694626
426.495 684925
426.645 684925
426.795 684925
426.945 684925
427.095 684925
427.245 684925
427.395 673405
427.545 661884
427.695 661884
427.845 661884
427.995 661884
428.145 661884
428.295 661884
428.445 675160
428.595 688435
428.745 688435
428.895 688435
429.045 688435
429.195 688435
429.345 689508
429.495 690581
429.645 690581
429.795 690581
429.945 690581
430.095 690581
430.245 690581
430.395 681902
430.545 673224
430.695 673224
430.845 673224
430.995 673224
431.145 673224
431.295 673224
431.445 643359
431.595 613495
431.745 613495
431.895 613495
432.045 613495
432.195 613495
432.345 685242
432.495 756990
432.645 756990
432.795 756990
432.945 756990
433.095 756990
433.245 756990
433.395 690508
433.545 624026
433.695 624026
433.845 624026
433.995 624026
434.145 624026
434.295 624026
434.445 627358
434.595 630691
434.745 630691
434.895 630691
435.045 630691
435.195 630691
435.345 679641
435.495 728591
435.645 728591
435.795 728591
435.945 728591
436.095 728591
436.245 728591
436.395 707985
436.545 687378
436.695 687378
436.845 687378
436.995 687378
437.145 687378
437.295 687378
437.445 641696
437.595 596014
437.745 596014
437.895 596014
438.045 596014
438.195 596014
438.345 619921
438.495 643829
438.645 643829
438.795 643829
438.945 643829
439.095 643829
439.245 643829
439.395 690704
439.545 737579
439.695 737579
439.845 737579
439.995 737579
440.145 737579
440.295 737579
440.445 703138
440.595 668696
440.745 668696
440.895 668696
441.045 668696
441.195 668696
441.345 675702
441.495 682707
441.645 682707
441.795 682707
441.945 682707
442.095 682707
442.245 682707
442.395 670362
442.545 658016
442.695 658016
442.845 658016
442.995 658016
443.145 658016
443.295 658016
443.445 640594
443.595 623173
443.745 623173
443.895 623173
444.045 623173
444.195 623173
444.345 627808
444.495 632444
444.645 632444
444.795 632444
444.945 632444
445.095 632444
445.245 632444
445.395 668066
445.545 703689
445.695 703689
445.845 703689
445.995 703689
446.145 703689
446.295 703689
446.445 672968
446.595 642247
446.745 642247
446.895 642247
447.045 642247
447.195 642247
447.345 633402
447.495 624556
447.645 624556
447.795 624556
447.945 624556
448.095 624556
448.245 624556
448.395 649233
448.545 673910
448.695 673910
448.845 673910
448.995 673910
449.145 673910
449.295 673910
449.445 654803
449.595 635695
449.745 635695
449.895 635695
450.045 635695
450.195 635695
450.345 628981
450.495 622267
450.645 622267
450.795 622267
450.945 622267
451.095 622267
451.245 622267
451.395 633435
451.545 644603
451.695 644603
451.845 644603
451.995 644603
452.145 644603
452.295 644603
452.445 627322
452.595 610041
452.745 610041
452.895 610041
453.045 610041
453.195 610041
453.345 610421
453.495 610801
453.645 610801
453.795 610801
453.945 610801
454.095 610801
454.245 610801
454.395 638670
454.545 666540
454.695 666540
454.845 666540
454.995 666540
455.145 666540
455.295 666540
455.445 628957
455.595 591374
455.745 591374
455.895 591374
456.045 591374
456.195 591374
456.345 609162
456.495 626950
456.645 626950
456.795 626950
456.945 626950
457.095 626950
457.245 626950
457.395 644694
457.545 662438
457.695 662438
457.845 662438
457.995 662438
458.145 662438
458.295 662438
458.445 614546
458.595 566653
458.745 566653
458.895 566653
459.045 566653
459.195 566653
459.345 601135
459.495 635617
459.645 635617
459.795 635617
459.945 635617
460.095 635617
460.245 635617
460.395 649961
460.545 664306
460.695 664306
460.845 664306
460.995 664306
461.145 664306
461.295 664306
461.445 660889
461.595 657472
461.745 657472
461.895 657472
462.045 657472
462.195 657472
462.345 643151
462.495 628831
462.645 628831
462.795 628831
462.945 628831
463.095 628831
463.245 628831
463.395 617016
463.545 605201
463.695 605201
463.845 605201
463.995 605201
464.145 605201
464.295 605201
464.445 629861
464.595 654522
464.745 654522
464.895 654522
465.045 654522
465.195 654522
465.345 665111
465.495 675700
465.645 675700
465.795 675700
465.945 675700
466.095 675700
466.245 675700
466.395 655795
466.545 635890
466.695 635890
466.845 635890
466.995 635890
467.145 635890
467.295 635890
467.445 575440
467.595 514990
467.745 514990
467.895 514990
468.045 514990
468.195 514990
468.345 543797
468.495 572604
468.645 572604
468.795 572604
468.945 572604
469.095 572604
469.245 572604
469.395 575251
469.545 577898
469.695 577898
469.845 577898
469.995 577898
470.145 577898
470.295 577898
470.445 539218
470.595 500537
470.745 500537
470.895 500537
471.045 500537
471.195 500537
471.345 537661
471.495 574785
471.645 574785
471.795 574785
471.945 574785
472.095 574785
472.245 574785
472.395 550847
472.545 526910
472.695 526910
472.845 526910
472.995 526910
473.145 526910
473.295 526910
473.445 546046
473.595 565182
473.745 565182
473.895 565182
474.045 565182
474.195 565182
474.345 554710
474.495 544239
474.645 544239
474.795 544239
474.945 544239
475.095 544239
475.245 544239
475.395 547243
475.545 550247
475.695 550247
475.845 550247
475.995 550247
476.145 550247
476.295 550247
476.445 546108
476.595 541969
476.745 541969
476.895 541969
477.045 541969
477.195 541969
477.345 546168
477.495 550367
477.645 550367
477.795 550367
477.945 550367
478.095 550367
478.245 550367
478.395 559527
478.545 568687
478.695 568687
478.845 568687
478.995 568687
479.145 568687
479.295 568687
479.445 553072
479.595 537456
479.745 537456
479.895 537456
480.045 537456
480.195 537456
480.345 563328
480.495 589199
480.645 589199
480.795 589199
480.945 589199
481.095 589199
481.245 589199
481.395 570544
481.545 551888
481.695 551888
481.845 551888
481.995 551888
482.145 551888
482.295 551888
482.445 563460
482.595 575033
482.745 575033
482.895 575033
483.045 575033
483.195 575033
483.345 580093
483.495 585153
483.645 585153
483.795 585153
483.945 585153
484.095 585153
484.245 585153
484.395 567340
484.545 549526
484.695 549526
484.845 549526
484.995 549526
485.145 549526
485.295 549526
485.445 560239
485.595 570951
485.745 570951
485.895 570951
486.045 570951
486.195 570951
486.345 575542
486.495 580134
486.645 580134
486.795 580134
486.945 580134
487.095 580134
487.245 580134
487.395 574349
487.545 568564
487.695 568564
487.845 568564
487.995 568564
488.145 568564
488.295 568564
488.445 570222
488.595 571879
488.745 571879
488.895 571879
489.045 571879
489.195 571879
489.345 560267
489.495 548655
489.645 548655
489.795 548655
489.945 548655
490.095 548655
490.245 548655
490.395 551082
490.545 553510
490.695 553510
490.845 553510
490.995 553510
491.145 553510
491.295 553510
491.445 530967
491.595 508425
491.745 508425
491.895 508425
492.045 508425
492.195 508425
492.345 528934
492.495 549443
492.645 549443
492.795 549443
492.945 549443
493.095 549443
493.245 549443
493.395 553413
493.545 557382
493.695 557382
493.845 557382
493.995 557382
494.145 557382
494.295 557382
494.445 569412
494.595 581442
494.745 581442
494.895 581442
495.045 581442
495.195 581442
495.345 554266
495.495 527089
495.645 527089
495.795 527089
495.945 527089
496.095 527089
496.245 527089
496.395 525910
496.545 524731
496.695 524731
496.845 524731
496.995 524731
497.145 524731
497.295 524731
497.445 518070
497.595 511410
497.745 511410
497.895 511410
498.045 511410
498.195 511410
498.345 520467
498.495 529524
498.645 529524
498.795 529524
498.945 529524
499.095 529524
499.245 529524
499.395 511716
499.545 493908
499.695 493908
499.845 493908
499.995 493908
500.145 493908
500.295 493908
500.445 499649
500.595 505391
500.745 505391
500.895 505391
501.045 505391
501.195 505391
501.345 502367
501.495 499343
501.645 499343
501.795 499343
501.945 499343
502.095 499343
502.245 499343
502.395 489512
502.545 479682
502.695 479682
502.845 479682
502.995 479682
503.145 479682
503.295 479682
503.445 489733
503.595 499784
503.745 499784
503.895 499784
504.045 499784
504.195 499784
504.345 495362
504.495 490939
504.645 490939
504.795 490939
504.945 490939
505.095 490939
505.245 490939
505.395 497892
505.545 504846
505.695 504846
505.845 504846
505.995 504846
506.145 504846
506.295 504846
506.445 511302
506.595 517759
506.745 517759
506.895 517759
507.045 517759
507.195 517759
507.345 514475
507.495 511191
507.645 511191
507.795 511191
507.945 511191
508.095 511191
508.245 511191
508.395 494325
508.545 477459
508.695 477459
508.845 477459
508.995 477459
509.145 477459
509.295 477459
509.445 481276
509.595 485093
509.745 485093
509.895 485093
510.045 485093
510.195 485093
510.345 478826
510.495 472560
510.645 472560
510.795 472560
510.945 472560
511.095 472560
511.245 472560
511.395 467162
511.545 461764
511.695 461764
511.845 461764
511.995 461764
512.145 461764
512.295 461764
512.445 460665
512.595 459565
512.745 459565
512.895 459565
513.045 459565
513.195 459565
513.345 463793
513.495 468020
513.645 468020
513.795 468020
513.945 468020
514.095 468020
514.245 468020
514.395 451439
514.545 434857
514.695 434857
514.845 434857
514.995 434857
515.145 434857
515.295 434857
515.445 444508
515.595 454159
515.745 454159
515.895 454159
516.045 454159
516.195 454159
516.345 452487
516.495 450814
516.645 450814
516.795 450814
516.945 450814
517.095 450814
517.245 450814
517.395 460634
517.545 470454
517.695 470454
517.845 470454
517.995 470454
518.145 470454
518.295 470454
518.445 452659
518.595 434863
518.745 434863
518.895 434863
519.045 434863
519.195 434863
519.345 445548
519.495 456233
519.645 456233
519.795 456233
519.945 456233
520.095 456233
520.245 456233
520.395 451728
520.545 447223
520.695 447223
520.845 447223
520.995 447223
521.145 447223
521.295 447223
521.445 463655
521.595 480086
521.745 480086
521.895 480086
522.045 480086
522.195 480086
522.345 478602
522.495 477117
522.645 477117
522.795 477117
522.945 477117
523.095 477117
523.245 477117
523.395 482056
523.545 486994
523.695 486994
523.845 486994
523.995 486994
524.145 486994
524.295 486994
524.445 481474
524.595 475954
524.745 475954
524.895 475954
525.045 475954
525.195 475954
525.345 473739
525.495 471524
525.645 471524
525.795 471524
525.945 471524
526.095 471524
526.245 471524
526.395 475235
526.545 478946
526.695 478946
526.845 478946
526.995 478946
527.145 478946
527.295 478946
527.445 465170
527.595 451394
527.745 451394
527.895 451394
528.045 451394
528.195 451394
528.345 456758
528.495 462121
528.645 462121
528.795 462121
528.945 462121
529.095 462121
529.245 462121
529.395 469426
529.545 476730
529.695 476730
529.845 476730
529.995 476730
530.145 476730
530.295 476730
530.445 476468
530.595 476206
530.745 476206
530.895 476206
531.045 476206
531.195 476206
531.345 464664
531.495 453123
531.645 453123
531.795 453123
531.945 453123
532.095 453123
532.245 453123
532.395 454218
532.545 455314
532.695 455314
532.845 455314
532.995 455314
533.145 455314
533.295 455314
533.445 449710
533.595 444106
533.745 444106
533.895 444106
534.045 444106
534.195 444106
534.345 438075
534.495 432044
534.645 432044
534.795 432044
534.945 432044
535.095 432044
535.245 432044
535.395 443794
535.545 455543
535.695 455543
535.845 455543
535.995 455543
536.145 455543
536.295 455543
536.445 450904
536.595 446265
536.745 446265
536.895 446265
537.045 446265
537.195 446265
537.345 447546
537.495 448828
537.645 448828
537.795 448828
537.945 448828
538.095 448828
538.245 448828
538.395 448849
538.545 448870
538.695 448870
538.845 448870
538.995 448870
539.145 448870
539.295 448870
539.445 442183
539.595 435496
539.745 435496
539.895 435496
540.045 435496
540.195 435496
540.345 434673
540.495 433850
540.645 433850
540.795 433850
540.945 433850
541.095 433850
541.245 433850
541.395 439335
541.545 444820
541.695 444820
541.845 444820
541.995 444820
542.145 444820
542.295 444820
542.445 432332
542.595 419844
542.745 419844
542.895 419844
543.045 419844
543.195 419844
543.345 415054
543.495 410265
543.645 410265
543.795 410265
543.945 410265
544.095 410265
544.245 410265
544.395 418148
544.545 426031
544.695 426031
544.845 426031
544.995 426031
545.145 426031
545.295 426031
545.445 427542
545.595 429052
545.745 429052
545.895 429052
546.045 429052
546.195 429052
546.345 429729
546.495 430405
546.645 430405
546.795 430405
546.945 430405
547.095 430405
547.245 430405
547.395 434161
547.545 437916
547.695 437916
547.845 437916
547.995 437916
548.145 437916
548.295 437916
548.445 432585
548.595 427253
548.745 427253
548.895 427253
549.045 427253
549.195 427253
549.345 425639
549.495 424025
549.645 424025
549.795 424025
549.945 424025
550.095 424025
550.245 424025
550.395 427517
550.545 431009
550.695 431009
550.845 431009
550.995 431009
551.145 431009
551.295 431009
551.445 427895
551.595 424781
551.745 424781
551.895 424781
552.045 424781
552.195 424781
552.345 420514
552.495 416247
552.645 416247
552.795 416247
552.945 416247
553.095 416247
553.245 416247
553.395 407780
553.545 399313
553.695 399313
553.845 399313
553.995 399313
554.145 399313
554.295 399313
554.445 382225
554.595 365137
554.745 365137
554.895 365137
555.045 365137
555.195 365137
555.345 375431
555.495 385725
555.645 385725
555.795 385725
555.945 385725
556.095 385725
556.245 385725
556.395 394751
556.545 403777
556.695 403777
556.845 403777
556.995 403777
557.145 403777
557.295 403777
557.445 426324
557.595 448870
557.745 448870
557.895 448870
558.045 448870
558.195 448870
558.345 463057
558.495 477244
558.645 477244
558.795 477244
558.945 477244
559.095 477244
559.245 477244
559.395 481601
559.545 485958
559.695 485958
559.845 485958
559.995 485958
560.145 485958
560.295 485958
560.445 467163
560.595 448367
560.745 448367
560.895 448367
561.045 448367
561.195 448367
561.345 440234
561.495 432101
561.645 432101
561.795 432101
561.945 432101
562.095 432101
562.245 432101
562.395 421334
562.545 410567
562.695 410567
562.845 410567
562.995 410567
563.145 410567
563.295 410567
563.445 409897
563.595 409228
563.745 409228
563.895 409228
564.045 409228
564.195 409228
564.345 416781
564.495 424334
564.645 424334
564.795 424334
564.945 424334
565.095 424334
565.245 424334
565.395 424384
565.545 424435
565.695 424435
565.845 424435
565.995 424435
566.145 424435
566.295 424435
566.445 408201
566.595 391967
566.745 391967
566.895 391967
567.045 391967
567.195 391967
567.345 391266
567.495 390565
567.645 390565
567.795 390565
567.945 390565
568.095 390565
568.245 390565
568.395 402478
568.545 414391
568.695 414391
568.845 414391
568.995 414391
569.145 414391
569.295 414391
569.445 404329
569.595 394267
569.745 394267
569.895 394267
570.045 394267
570.195 394267
570.345 392164
570.495 390061
570.645 390061
570.795 390061
570.945 390061
571.095 390061
571.245 390061
571.395 397052
571.545 404044
571.695 404044
571.845 404044
571.995 404044
572.145 404044
572.295 404044
572.445 404243
572.595 404442
572.745 404442
572.895 404442
573.045 404442
573.195 404442
573.345 402628
573.495 400813
573.645 400813
573.795 400813
573.945 400813
574.095 400813
574.245 400813
574.395 391191
574.545 381569
574.695 381569
574.845 381569
574.995 381569
575.145 381569
575.295 381569
575.445 387449
575.595 393329
575.745 393329
575.895 393329
576.045 393329
576.195 393329
576.345 384971
576.495 376613
576.645 376613
576.795 376613
576.945 376613
577.095 376613
577.245 376613
577.395 369052
577.545 361490
577.695 361490
577.845 361490
577.995 361490
578.145 361490
578.295 361490
578.445 370763
578.595 380036
578.745 380036
578.895 380036
579.045 380036
579.195 380036
579.345 392040
579.495 404044
579.645 404044
579.795 404044
579.945 404044
580.095 404044
580.245 404044
580.395 397713
580.545 391382
580.695 391382
580.845 391382
580.995 391382
581.145 391382
581.295 391382
581.445 385562
581.595 379742
581.745 379742
581.895 379742
582.045 379742
582.195 379742
582.345 385837
582.495 391931
582.645 391931
582.795 391931
582.945 391931
583.095 391931
583.245 391931
583.395 387964
583.545 383996
583.695 383996
583.845 383996
583.995 383996
584.145 383996
584.295 383996
584.445 384511
584.595 385026
584.745 385026
584.895 385026
585.045 385026
585.195 385026
585.345 393667
585.495 402309
585.645 402309
585.795 402309
585.945 402309
586.095 402309
586.245 402309
586.395 402488
586.545 402667
586.695 402667
586.845 402667
586.995 402667
587.145 402667
587.295 402667
587.445 402665
587.595 402662
587.745 402662
587.895 402662
588.045 402662
588.195 402662
588.345 403880
588.495 405098
588.645 405098
588.795 405098
588.945 405098
589.095 405098
589.245 405098
589.395 403946
589.545 402795
589.695 402795
589.845 402795
589.995 402795
590.145 402795
590.295 402795
590.445 394154
590.595 385514
590.745 385514
590.895 385514
591.045 385514
591.195 385514
591.345 382508
591.495 379503
591.645 379503
591.795 379503
591.945 379503
592.095 379503
592.245 379503
592.395 380518
592.545 381532
592.695 381532
592.845 381532
592.995 381532
593.145 381532
593.295 381532
593.445 392938
593.595 404345
593.745 404345
593.895 404345
594.045 404345
594.195 404345
594.345 404354
594.495 404364
594.645 404364
594.795 404364
594.945 404364
595.095 404364
595.245 404364
595.395 397637
595.545 390911
595.695 390911
595.845 390911
595.995 390911
596.145 390911
596.295 390911
596.445 387925
596.595 384938
596.745 384938
596.895 384938
597.045 384938
597.195 384938
597.345 394690
597.495 404441
597.645 404441
597.795 404441
597.945 404441
598.095 404441
598.245 404441
598.395 405303
598.545 406164
598.695 406164
598.845 406164
598.995 406164
599.145 406164
599.295 406164
599.445 401303
599.595 396441
599.745 396441
599.895 396441
600.045 396441
600.195 396441
600.345 390448
600.495 384455
600.645 384455
600.795 384455
600.945 384455
601.095 384455
601.245 384455
601.395 386680
601.545 388905
601.695 388905
601.845 388905
601.995 388905
602.145 388905
602.295 388905
602.445 390444
602.595 391983
602.745 391983
602.895 391983
603.045 391983
603.195 391983
603.345 376584
603.495 361185
603.645 361185
603.795 361185
603.945 361185
604.095 361185
604.245 361185
604.395 354683
604.545 348181
604.695 348181
604.845 348181
604.995 348181
605.145 348181
605.295 348181
605.445 358639
605.595 369096
605.745 369096
605.895 369096
606.045 369096
606.195 369096
606.345 367890
606.495 366684
606.645 366684
606.795 366684
606.945 366684
607.095 366684
607.245 366684
607.395 372576
607.545 378468
607.695 378468
607.845 378468
607.995 378468
608.145 378468
608.295 378468
608.445 372772
608.595 367077
608.745 367077
608.895 367077
609.045 367077
609.195 367077
609.345 364251
609.495 361426
609.645 361426
609.795 361426
609.945 361426
610.095 361426
610.245 361426
610.395 360329
610.545 359231
610.695 359231
610.845 359231
610.995 359231
611.145 359231
611.295 359231
611.445 364701
611.595 370172
611.745 370172