# lam(nm) Flux (phot/s/cm2/Ang)
465 2.05083e-05
465.125 2.05138e-05
465.25 2.07863e-05
465.375 2.10589e-05
465.5 2.10646e-05
465.625 2.10702e-05
465.75 2.15459e-05
465.875 2.20219e-05
466 2.20278e-05
466.125 2.20337e-05
466.25 2.1625e-05
466.375 2.12161e-05
466.5 2.12218e-05
466.625 2.12275e-05
466.75 2.10876e-05
466.875 2.09476e-05
467 2.09532e-05
467.125 2.09588e-05
467.25 2.08354e-05
467.375 2.07118e-05
467.5 2.07174e-05
467.625 2.07229e-05
467.75 2.05836e-05
467.875 2.04442e-05
468 2.04496e-05
468.125 2.04551e-05
468.25 2.03605e-05
468.375 2.02658e-05
468.5 2.02712e-05
468.625 2.02766e-05
468.75 2.03365e-05
468.875 2.03965e-05
469 2.04019e-05
469.125 2.04073e-05
469.25 2.05844e-05
469.375 2.07616e-05
469.5 2.07671e-05
469.625 2.07726e-05
469.75 2.0686e-05
469.875 2.05994e-05
470 2.06049e-05
470.125 2.06104e-05
470.25 2.05677e-05
470.375 2.05251e-05
470.5 2.05305e-05
470.625 2.0536e-05
470.75 2.05053e-05
470.875 2.04745e-05
471 2.048e-05
471.125 2.04854e-05
471.25 2.07629e-05
471.375 2.10405e-05
471.5 2.10461e-05
471.625 2.10516e-05
471.75 2.1394e-05
471.875 2.17365e-05
472 2.17423e-05
472.125 2.1748e-05
472.25 2.17584e-05
472.375 2.17687e-05
472.5 2.17744e-05
472.625 2.17802e-05
472.75 2.16623e-05
472.875 2.15443e-05
473 2.155e-05
473.125 2.15557e-05
473.25 2.1587e-05
473.375 2.16183e-05
473.5 2.1624e-05
473.625 2.16297e-05
473.75 2.16605e-05
473.875 2.16912e-05
474 2.1697e-05
474.125 2.17027e-05
474.25 2.15339e-05
474.375 2.1365e-05
474.5 2.13706e-05
474.625 2.13763e-05
474.75 2.18486e-05
474.875 2.23212e-05
475 2.23271e-05
475.125 2.23329e-05
475.25 2.19373e-05
475.375 2.15414e-05
475.5 2.1547e-05
475.625 2.15527e-05
475.75 2.12815e-05
475.875 2.10101e-05
476 2.10156e-05
476.125 2.10211e-05
476.25 2.09577e-05
476.375 2.08943e-05
476.5 2.08998e-05
476.625 2.09053e-05
476.75 2.1084e-05
476.875 2.12629e-05
477 2.12684e-05
477.125 2.1274e-05
477.25 2.1513e-05
477.375 2.17521e-05
477.5 2.17578e-05
477.625 2.17635e-05
477.75 2.18065e-05
477.875 2.18496e-05
478 2.18553e-05
478.125 2.1861e-05
478.25 2.18322e-05
478.375 2.18034e-05
478.5 2.18091e-05
478.625 2.18148e-05
478.75 2.19726e-05
478.875 2.21305e-05
479 2.21363e-05
479.125 2.21421e-05
479.25 2.22459e-05
479.375 2.23497e-05
479.5 2.23556e-05
479.625 2.23614e-05
479.75 2.24745e-05
479.875 2.25876e-05
480 2.25935e-05
480.125 2.25994e-05
480.25 2.26219e-05
480.375 2.26445e-05
480.5 2.26504e-05
480.625 2.26563e-05
480.75 2.26617e-05
480.875 2.26672e-05
481 2.26731e-05
481.125 2.2679e-05
481.25 2.27516e-05
481.375 2.28242e-05
481.5 2.28301e-05
481.625 2.28361e-05
481.75 2.28978e-05
481.875 2.29596e-05
482 2.29656e-05
482.125 2.29715e-05
482.25 2.2738e-05
482.375 2.25043e-05
482.5 2.25102e-05
482.625 2.2516e-05
482.75 2.23097e-05
482.875 2.21032e-05
483 2.21089e-05
483.125 2.21147e-05
483.25 2.20717e-05
483.375 2.20288e-05
483.5 2.20345e-05
483.625 2.20402e-05
483.75 2.21312e-05
483.875 2.22222e-05
484 2.22279e-05
484.125 2.22337e-05
484.25 2.22785e-05
484.375 2.23233e-05
484.5 2.23291e-05
484.625 2.23349e-05
484.75 2.22735e-05
484.875 2.22121e-05
485 2.22179e-05
485.125 2.22236e-05
485.25 2.19991e-05
485.375 2.17746e-05
485.5 2.17802e-05
485.625 2.17858e-05
485.75 2.11877e-05
485.875 2.05892e-05
486 2.05945e-05
486.125 2.05998e-05
486.25 2.06975e-05
486.375 2.07953e-05
486.5 2.08006e-05
486.625 2.0806e-05
486.75 2.0327e-05
486.875 1.98477e-05
487 1.98528e-05
487.125 1.98579e-05
487.25 1.98153e-05
487.375 1.97726e-05
487.5 1.97777e-05
487.625 1.97827e-05
487.75 1.98887e-05
487.875 1.99947e-05
488 1.99998e-05
488.125 2.00049e-05
488.25 2.00374e-05
488.375 2.00699e-05
488.5 2.00751e-05
488.625 2.00802e-05
488.75 2.0143e-05
488.875 2.02059e-05
489 2.0211e-05
489.125 2.02162e-05
489.25 2.06229e-05
489.375 2.10298e-05
489.5 2.10351e-05
489.625 2.10405e-05
489.75 2.17208e-05
489.875 2.24014e-05
490 2.24071e-05
490.125 2.24128e-05
490.25 2.26526e-05
490.375 2.28926e-05
490.5 2.28985e-05
490.625 2.29043e-05
490.75 2.28523e-05
490.875 2.28003e-05
491 2.28061e-05
491.125 2.28119e-05
491.25 2.27746e-05
491.375 2.27372e-05
491.5 2.2743e-05
491.625 2.27488e-05
491.75 2.25802e-05
491.875 2.24115e-05
492 2.24172e-05
492.125 2.24229e-05
492.25 2.19488e-05
492.375 2.14746e-05
492.5 2.148e-05
492.625 2.14855e-05
492.75 2.16648e-05
492.875 2.18442e-05
493 2.18497e-05
493.125 2.18553e-05
493.25 2.17595e-05
493.375 2.16636e-05
493.5 2.16691e-05
493.625 2.16746e-05
493.75 2.18165e-05
493.875 2.19586e-05
494 2.19641e-05
494.125 2.19697e-05
494.25 2.22241e-05
494.375 2.24787e-05
494.5 2.24843e-05
494.625 2.249e-05
494.75 2.27705e-05
494.875 2.30511e-05
495 2.30569e-05
495.125 2.30627e-05
495.25 2.31379e-05
495.375 2.32131e-05
495.5 2.3219e-05
495.625 2.32248e-05
495.75 2.27504e-05
495.875 2.22757e-05
496 2.22813e-05
496.125 2.22869e-05
496.25 2.21473e-05
496.375 2.20076e-05
496.5 2.20132e-05
496.625 2.20187e-05
496.75 2.20287e-05
496.875 2.20387e-05
497 2.20442e-05
497.125 2.20498e-05
497.25 2.20298e-05
497.375 2.20099e-05
497.5 2.20155e-05
497.625 2.2021e-05
497.75 2.17605e-05
497.875 2.14998e-05
498 2.15052e-05
498.125 2.15106e-05
498.25 2.12697e-05
498.375 2.10286e-05
498.5 2.10339e-05
498.625 2.10392e-05
498.75 2.13296e-05
498.875 2.16201e-05
499 2.16255e-05
499.125 2.16309e-05
499.25 2.17891e-05
499.375 2.19474e-05
499.5 2.19529e-05
499.625 2.19584e-05
499.75 2.20568e-05
499.875 2.21554e-05
500 2.21609e-05
500.125 2.21664e-05
500.25 2.22037e-05
500.375 2.2241e-05
500.5 2.22466e-05
500.625 2.22521e-05
500.75 2.22041e-05
500.875 2.21561e-05
501 2.21616e-05
501.125 2.21672e-05
501.25 2.20109e-05
501.375 2.18546e-05
501.5 2.18601e-05
501.625 2.18655e-05
501.75 2.16541e-05
501.875 2.14426e-05
502 2.14479e-05
502.125 2.14532e-05
502.25 2.16191e-05
502.375 2.1785e-05
502.5 2.17904e-05
502.625 2.17958e-05
502.75 2.21507e-05
502.875 2.25058e-05
503 2.25114e-05
503.125 2.2517e-05
503.25 2.24933e-05
503.375 2.24696e-05
503.5 2.24752e-05
503.625 2.24808e-05
503.75 2.23219e-05
503.875 2.21628e-05
504 2.21683e-05
504.125 2.21738e-05
504.25 2.2154e-05
504.375 2.21342e-05
504.5 2.21397e-05
504.625 2.21452e-05
504.75 2.23637e-05
504.875 2.25823e-05
505 2.25879e-05
505.125 2.25935e-05
505.25 2.24955e-05
505.375 2.23973e-05
505.5 2.24029e-05
505.625 2.24084e-05
505.75 2.26787e-05
505.875 2.29491e-05
506 2.29547e-05
506.125 2.29604e-05
506.25 2.32325e-05
506.375 2.35048e-05
506.5 2.35106e-05
506.625 2.35164e-05
506.75 2.35429e-05
506.875 2.35694e-05
507 2.35753e-05
507.125 2.35811e-05
507.25 2.32555e-05
507.375 2.29298e-05
507.5 2.29355e-05
507.625 2.29411e-05
507.75 2.23666e-05
507.875 2.17918e-05
508 2.17972e-05
508.125 2.18026e-05
508.25 2.21854e-05
508.375 2.25684e-05
508.5 2.25739e-05
508.625 2.25795e-05
508.75 2.27319e-05
508.875 2.28844e-05
509 2.289e-05
509.125 2.28957e-05
509.25 2.29397e-05
509.375 2.29837e-05
509.5 2.29893e-05
509.625 2.2995e-05
509.75 2.2929e-05
509.875 2.28631e-05
510 2.28687e-05
510.125 2.28743e-05
510.25 2.27532e-05
510.375 2.2632e-05
510.5 2.26375e-05
510.625 2.26431e-05
510.75 2.29252e-05
510.875 2.32074e-05
511 2.32131e-05
511.125 2.32187e-05
511.25 2.33392e-05
511.375 2.34598e-05
511.5 2.34655e-05
511.625 2.34712e-05
511.75 2.34756e-05
511.875 2.34799e-05
512 2.34856e-05
512.125 2.34913e-05
512.25 2.32044e-05
512.375 2.29174e-05
512.5 2.2923e-05
512.625 2.29286e-05
512.75 2.26058e-05
512.875 2.22828e-05
513 2.22882e-05
513.125 2.22936e-05
513.25 2.26985e-05
513.375 2.31035e-05
513.5 2.31091e-05
513.625 2.31147e-05
513.75 2.27871e-05
513.875 2.24594e-05
514 2.24648e-05
514.125 2.24703e-05
514.25 2.2532e-05
514.375 2.25937e-05
514.5 2.25991e-05
514.625 2.26046e-05
514.75 2.2692e-05
514.875 2.27794e-05
515 2.27849e-05
515.125 2.27905e-05
515.25 2.27249e-05
515.375 2.26593e-05
515.5 2.26648e-05
515.625 2.26703e-05
515.75 2.24342e-05
515.875 2.21981e-05
516 2.22034e-05
516.125 2.22088e-05
516.25 2.21403e-05
516.375 2.20716e-05
516.5 2.2077e-05
516.625 2.20823e-05
516.75 2.10881e-05
516.875 2.00933e-05
517 2.00981e-05
517.125 2.0103e-05
517.25 1.98813e-05
517.375 1.96594e-05
517.5 1.96642e-05
517.625 1.96689e-05
517.75 2.00345e-05
517.875 2.04003e-05
518 2.04053e-05
518.125 2.04102e-05
518.25 2.07274e-05
518.375 2.10447e-05
518.5 2.10498e-05
518.625 2.10548e-05
518.75 2.11866e-05
518.875 2.13185e-05
519 2.13236e-05
519.125 2.13288e-05
519.25 2.18373e-05
519.375 2.23461e-05
519.5 2.23515e-05
519.625 2.23569e-05
519.75 2.28458e-05
519.875 2.3335e-05
520 2.33406e-05
520.125 2.33462e-05
520.25 2.35249e-05
520.375 2.37036e-05
520.5 2.37093e-05
520.625 2.3715e-05
520.75 2.34796e-05
520.875 2.3244e-05
521 2.32496e-05
521.125 2.32552e-05
521.25 2.3009e-05
521.375 2.27627e-05
521.5 2.27682e-05
521.625 2.27736e-05
521.75 2.30405e-05
521.875 2.33074e-05
522 2.3313e-05
522.125 2.33186e-05
522.25 2.31281e-05
522.375 2.29375e-05
522.5 2.29429e-05
522.625 2.29484e-05
522.75 2.29033e-05
522.875 2.28581e-05
523 2.28635e-05
523.125 2.2869e-05
523.25 2.33915e-05
523.375 2.39143e-05
523.5 2.392e-05
523.625 2.39257e-05
523.75 2.41543e-05
523.875 2.43831e-05
524 2.43889e-05
524.125 2.43947e-05
524.25 2.45499e-05
524.375 2.47052e-05
524.5 2.47111e-05
524.625 2.4717e-05
524.75 2.45395e-05
524.875 2.43618e-05
525 2.43676e-05
525.125 2.43734e-05
525.25 2.41631e-05
525.375 2.39526e-05
525.5 2.39583e-05
525.625 2.3964e-05
525.75 2.39116e-05
525.875 2.38591e-05
526 2.38648e-05
526.125 2.38704e-05
526.25 2.32146e-05
526.375 2.25584e-05
526.5 2.25638e-05
526.625 2.25691e-05
526.75 2.20104e-05
526.875 2.14514e-05
527 2.14565e-05
527.125 2.14616e-05
527.25 2.18888e-05
527.375 2.23162e-05
527.5 2.23215e-05
527.625 2.23267e-05
527.75 2.31614e-05
527.875 2.39965e-05
528 2.40022e-05
528.125 2.40079e-05
528.25 2.4383e-05
528.375 2.47582e-05
528.5 2.47641e-05
528.625 2.47699e-05
528.75 2.51741e-05
528.875 2.55784e-05
529 2.55845e-05
529.125 2.55905e-05
529.25 2.55335e-05
529.375 2.54765e-05
529.5 2.54825e-05
529.625 2.54885e-05
529.75 2.53872e-05
529.875 2.52859e-05
530 2.52919e-05
530.125 2.52978e-05
530.25 2.53688e-05
530.375 2.54399e-05
530.5 2.54459e-05
530.625 2.54519e-05
530.75 2.58376e-05
530.875 2.62234e-05
531 2.62296e-05
531.125 2.62358e-05
531.25 2.59595e-05
531.375 2.56832e-05
531.5 2.56892e-05
531.625 2.56953e-05
531.75 2.56181e-05
531.875 2.5541e-05
532 2.5547e-05
532.125 2.5553e-05
532.25 2.53605e-05
532.375 2.51678e-05
532.5 2.51738e-05
532.625 2.51797e-05
532.75 2.48445e-05
532.875 2.45092e-05
533 2.4515e-05
533.125 2.45207e-05
533.25 2.46071e-05
533.375 2.46935e-05
533.5 2.46992e-05
533.625 2.4705e-05
533.75 2.47299e-05
533.875 2.47548e-05
534 2.47606e-05
534.125 2.47664e-05
534.25 2.48432e-05
534.375 2.49199e-05
534.5 2.49258e-05
534.625 2.49316e-05
534.75 2.51579e-05
534.875 2.53842e-05
535 2.53902e-05
535.125 2.53961e-05
535.25 2.58217e-05
535.375 2.62476e-05
535.5 2.62537e-05
535.625 2.62598e-05
535.75 2.63483e-05
535.875 2.64369e-05
536 2.6443e-05
536.125 2.64492e-05
536.25 2.62313e-05
536.375 2.60133e-05
536.5 2.60194e-05
536.625 2.60254e-05
536.75 2.57738e-05
536.875 2.5522e-05
537 2.5528e-05
537.125 2.55339e-05
537.25 2.53833e-05
537.375 2.52327e-05
537.5 2.52385e-05
537.625 2.52444e-05
537.75 2.52641e-05
537.875 2.52837e-05
538 2.52896e-05
538.125 2.52955e-05
538.25 2.57954e-05
538.375 2.62956e-05
538.5 2.63017e-05
538.625 2.63078e-05
538.75 2.62295e-05
538.875 2.61512e-05
539 2.61572e-05
539.125 2.61633e-05
539.25 2.58933e-05
539.375 2.56232e-05
539.5 2.56291e-05
539.625 2.5635e-05
539.75 2.57144e-05
539.875 2.57938e-05
540 2.57998e-05
540.125 2.58058e-05
540.25 2.58412e-05
540.375 2.58766e-05
540.5 2.58826e-05
540.625 2.58885e-05
540.75 2.59731e-05
540.875 2.60577e-05
541 2.60638e-05
541.125 2.60698e-05
541.25 2.61033e-05
541.375 2.61369e-05
541.5 2.61429e-05
541.625 2.61489e-05
541.75 2.6121e-05
541.875 2.6093e-05
542 2.60991e-05
542.125 2.61051e-05
542.25 2.61818e-05
542.375 2.62586e-05
542.5 2.62647e-05
542.625 2.62707e-05
542.75 2.63278e-05
542.875 2.63849e-05
543 2.6391e-05
543.125 2.63971e-05
543.25 2.62425e-05
543.375 2.60878e-05
543.5 2.60938e-05
543.625 2.60998e-05
543.75 2.60197e-05
543.875 2.59395e-05
544 2.59455e-05
544.125 2.59514e-05
544.25 2.65639e-05
544.375 2.71767e-05
544.5 2.71829e-05
544.625 2.71892e-05
544.75 2.71073e-05
544.875 2.70253e-05
545 2.70315e-05
545.125 2.70377e-05
545.25 2.69324e-05
545.375 2.6827e-05
545.5 2.68331e-05
545.625 2.68393e-05
545.75 2.67398e-05
545.875 2.66402e-05
546 2.66463e-05
546.125 2.66524e-05
546.25 2.6553e-05
546.375 2.64535e-05
546.5 2.64596e-05
546.625 2.64656e-05
546.75 2.63732e-05
546.875 2.62807e-05
547 2.62867e-05
547.125 2.62928e-05
547.25 2.6234e-05
547.375 2.61753e-05
547.5 2.61813e-05
547.625 2.61873e-05
547.75 2.60413e-05
547.875 2.58953e-05
548 2.59012e-05
548.125 2.59071e-05
548.25 2.56594e-05
548.375 2.54115e-05
548.5 2.54173e-05
548.625 2.54231e-05
548.75 2.55385e-05
548.875 2.56539e-05
549 2.56598e-05
549.125 2.56656e-05
549.25 2.60616e-05
549.375 2.64578e-05
549.5 2.64639e-05
549.625 2.64699e-05
549.75 2.66543e-05
549.875 2.68388e-05
550 2.68449e-05
550.125 2.6851e-05
550.25 2.67068e-05
550.375 2.65624e-05
550.5 2.65684e-05
550.625 2.65745e-05
550.75 2.64077e-05
550.875 2.62408e-05
551 2.62467e-05
551.125 2.62527e-05
551.25 2.6271e-05
551.375 2.62894e-05
551.5 2.62953e-05
551.625 2.63013e-05
551.75 2.63597e-05
551.875 2.64182e-05
552 2.64242e-05
552.125 2.64302e-05
552.25 2.63935e-05
552.375 2.63569e-05
552.5 2.63628e-05
552.625 2.63688e-05
552.75 2.59156e-05
552.875 2.54621e-05
553 2.54679e-05
553.125 2.54736e-05
553.25 2.57263e-05
553.375 2.5979e-05
553.5 2.59849e-05
553.625 2.59907e-05
553.75 2.64442e-05
553.875 2.68978e-05
554 2.69039e-05
554.125 2.69099e-05
554.25 2.7279e-05
554.375 2.76483e-05
554.5 2.76545e-05
554.625 2.76607e-05
554.75 2.74367e-05
554.875 2.72127e-05
555 2.72188e-05
555.125 2.72249e-05
555.25 2.70234e-05
555.375 2.68217e-05
555.5 2.68277e-05
555.625 2.68338e-05
555.75 2.66787e-05
555.875 2.65236e-05
556 2.65296e-05
556.125 2.65355e-05
556.25 2.65317e-05
556.375 2.65279e-05
556.5 2.65339e-05
556.625 2.65399e-05
556.75 2.6938e-05
556.875 2.73364e-05
557 2.73425e-05
557.125 2.73487e-05
557.25 2.73108e-05
557.375 2.72729e-05
557.5 2.7279e-05
557.625 2.72851e-05
557.75 2.70176e-05
557.875 2.675e-05
558 2.6756e-05
558.125 2.6762e-05
558.25 2.64202e-05
558.375 2.60782e-05
558.5 2.60841e-05
558.625 2.60899e-05
558.75 2.5983e-05
558.875 2.58762e-05
559 2.58819e-05
559.125 2.58877e-05
559.25 2.59102e-05
559.375 2.59328e-05
559.5 2.59385e-05
559.625 2.59443e-05
559.75 2.59806e-05
559.875 2.60168e-05
560 2.60226e-05
560.125 2.60285e-05
560.25 2.61555e-05
560.375 2.62825e-05
560.5 2.62884e-05
560.625 2.62943e-05
560.75 2.67954e-05
560.875 2.72967e-05
561 2.73028e-05
561.125 2.73088e-05
561.25 2.76655e-05
561.375 2.80224e-05
561.5 2.80286e-05
561.625 2.80348e-05
561.75 2.81638e-05
561.875 2.82928e-05
562 2.82991e-05
562.125 2.83054e-05
562.25 2.81852e-05
562.375 2.8065e-05
562.5 2.80712e-05
562.625 2.80775e-05
562.75 2.76771e-05
562.875 2.72765e-05
563 2.72826e-05
563.125 2.72886e-05
563.25 2.7328e-05
563.375 2.73674e-05
563.5 2.73735e-05
563.625 2.73795e-05
563.75 2.73144e-05
563.875 2.72493e-05
564 2.72553e-05
564.125 2.72614e-05
564.25 2.70238e-05
564.375 2.67862e-05
564.5 2.67921e-05
564.625 2.6798e-05
564.75 2.69687e-05
564.875 2.71395e-05
565 2.71455e-05
565.125 2.71515e-05
565.25 2.71601e-05
565.375 2.71687e-05
565.5 2.71747e-05
565.625 2.71807e-05
565.75 2.7015e-05
565.875 2.68491e-05
566 2.6855e-05
566.125 2.6861e-05
566.25 2.65669e-05
566.375 2.62727e-05
566.5 2.62785e-05
566.625 2.62843e-05
566.75 2.68258e-05
566.875 2.73677e-05
567 2.73737e-05
567.125 2.73797e-05
567.25 2.75242e-05
567.375 2.76688e-05
567.5 2.76748e-05
567.625 2.76809e-05
567.75 2.77843e-05
567.875 2.78876e-05
568 2.78938e-05
568.125 2.78999e-05
568.25 2.82567e-05
568.375 2.86136e-05
568.5 2.86199e-05
568.625 2.86262e-05
568.75 2.88793e-05
568.875 2.91325e-05
569 2.91389e-05
569.125 2.91453e-05
569.25 2.9057e-05
569.375 2.89687e-05
569.5 2.89751e-05
569.625 2.89814e-05
569.75 2.86597e-05
569.875 2.83378e-05
570 2.8344e-05
570.125 2.83502e-05
570.25 2.79609e-05
570.375 2.75714e-05
570.5 2.75775e-05
570.625 2.75835e-05
570.75 2.73915e-05
570.875 2.71994e-05
571 2.72054e-05
571.125 2.72113e-05
571.25 2.74087e-05
571.375 2.76061e-05
571.5 2.76121e-05
571.625 2.76181e-05
571.75 2.81312e-05
571.875 2.86446e-05
572 2.86508e-05
572.125 2.86571e-05
572.25 2.90536e-05
572.375 2.94502e-05
572.5 2.94567e-05
572.625 2.94631e-05
572.75 2.96072e-05
572.875 2.97513e-05
573 2.97578e-05
573.125 2.97643e-05
573.25 2.9877e-05
573.375 2.99899e-05
573.5 2.99964e-05
573.625 3.00029e-05
573.75 3.01459e-05
573.875 3.02888e-05
574 3.02954e-05
574.125 3.0302e-05
574.25 2.96629e-05
574.375 2.90234e-05
574.5 2.90297e-05
574.625 2.9036e-05
574.75 2.9001e-05
574.875 2.8966e-05
575 2.89723e-05
575.125 2.89786e-05
575.25 2.90837e-05
575.375 2.91889e-05
575.5 2.91953e-05
575.625 2.92016e-05
575.75 2.88678e-05
575.875 2.85339e-05
576 2.85401e-05
576.125 2.85463e-05
576.25 2.8625e-05
576.375 2.87037e-05
576.5 2.87099e-05
576.625 2.87161e-05
576.75 2.89818e-05
576.875 2.92476e-05
577 2.92539e-05
577.125 2.92603e-05
577.25 2.95936e-05
577.375 2.9927e-05
577.5 2.99335e-05
577.625 2.994e-05
577.75 2.98884e-05
577.875 2.98368e-05
578 2.98432e-05
578.125 2.98497e-05
578.25 2.96962e-05
578.375 2.95427e-05
578.5 2.95491e-05
578.625 2.95555e-05
578.75 2.94394e-05
578.875 2.93233e-05
579 2.93296e-05
579.125 2.93359e-05
579.25 2.93384e-05
579.375 2.93409e-05
579.5 2.93472e-05
579.625 2.93535e-05
579.75 2.9645e-05
579.875 2.99365e-05
580 2.9943e-05
580.125 2.99494e-05
580.25 2.97953e-05
580.375 2.96412e-05
580.5 2.96476e-05
580.625 2.96539e-05
580.75 2.92895e-05
580.875 2.8925e-05
581 2.89312e-05
581.125 2.89374e-05
581.25 2.89426e-05
581.375 2.89478e-05
581.5 2.89541e-05
581.625 2.89603e-05
581.75 2.90247e-05
581.875 2.90891e-05
582 2.90954e-05
582.125 2.91016e-05
582.25 2.93377e-05
582.375 2.9574e-05
582.5 2.95803e-05
582.625 2.95867e-05
582.75 3.00386e-05
582.875 3.04907e-05
583 3.04972e-05
583.125 3.05038e-05
583.25 3.08087e-05
583.375 3.11138e-05
583.5 3.11204e-05
583.625 3.11271e-05
583.75 3.08675e-05
583.875 3.06078e-05
584 3.06144e-05
584.125 3.0621e-05
584.25 3.0217e-05
584.375 2.98129e-05
584.5 2.98193e-05
584.625 2.98257e-05
584.75 3.00734e-05
584.875 3.03211e-05
585 3.03276e-05
585.125 3.03341e-05
585.25 3.04927e-05
585.375 3.06514e-05
585.5 3.0658e-05
585.625 3.06645e-05
585.75 3.0724e-05
585.875 3.07836e-05
586 3.07902e-05
586.125 3.07967e-05
586.25 3.07478e-05
586.375 3.06988e-05
586.5 3.07053e-05
586.625 3.07119e-05
586.75 3.06727e-05
586.875 3.06336e-05
587 3.06401e-05
587.125 3.06466e-05
587.25 3.05547e-05
587.375 3.04627e-05
587.5 3.04692e-05
587.625 3.04757e-05
587.75 3.03467e-05
587.875 3.02176e-05
588 3.0224e-05
588.125 3.02304e-05
588.25 3.00852e-05
588.375 2.99399e-05
588.5 2.99463e-05
588.625 2.99526e-05
588.75 2.86388e-05
588.875 2.73243e-05
589 2.73301e-05
589.125 2.73359e-05
589.25 2.63092e-05
589.375 2.52821e-05
589.5 2.52875e-05
589.625 2.52928e-05
589.75 2.51719e-05
589.875 2.5051e-05
590 2.50563e-05
590.125 2.50616e-05
590.25 2.612e-05
590.375 2.71788e-05
590.5 2.71846e-05
590.625 2.71903e-05
590.75 2.76972e-05
590.875 2.82043e-05
591 2.82103e-05
591.125 2.82162e-05
591.25 2.82801e-05
591.375 2.83439e-05
591.5 2.83499e-05
591.625 2.83559e-05
591.75 2.84474e-05
591.875 2.85389e-05
592 2.85449e-05
592.125 2.8551e-05
592.25 2.82962e-05
592.375 2.80414e-05
592.5 2.80473e-05
592.625 2.80532e-05
592.75 2.79104e-05
592.875 2.77674e-05
593 2.77733e-05
593.125 2.77791e-05
593.25 2.81648e-05
593.375 2.85507e-05
593.5 2.85567e-05
593.625 2.85627e-05
593.75 2.8983e-05
593.875 2.94035e-05
594 2.94097e-05
594.125 2.94159e-05
594.25 2.95854e-05
594.375 2.9755e-05
594.5 2.97613e-05
594.625 2.97675e-05
594.75 2.96432e-05
594.875 2.95188e-05
595 2.9525e-05
595.125 2.95312e-05
595.25 2.92982e-05
595.375 2.90651e-05
595.5 2.90713e-05
595.625 2.90774e-05
595.75 2.93067e-05
595.875 2.95362e-05
596 2.95424e-05
596.125 2.95486e-05
596.25 2.99293e-05
596.375 3.03101e-05
596.5 3.03164e-05
596.625 3.03228e-05
596.75 3.01386e-05
596.875 2.99543e-05
597 2.99605e-05
597.125 2.99668e-05
597.25 2.97449e-05
597.375 2.95229e-05
597.5 2.95291e-05
597.625 2.95353e-05
597.75 2.91803e-05
597.875 2.88252e-05
598 2.88312e-05
598.125 2.88373e-05
598.25 2.82371e-05
598.375 2.76367e-05
598.5 2.76425e-05
598.625 2.76482e-05
598.75 2.8115e-05
598.875 2.8582e-05
599 2.85879e-05
599.125 2.85939e-05
599.25 2.87712e-05
599.375 2.89485e-05
599.5 2.89545e-05
599.625 2.89606e-05
599.75 2.86789e-05
599.875 2.8397e-05
600 2.84029e-05
600.125 2.84089e-05
600.25 2.86207e-05
600.375 2.88326e-05
600.5 2.88386e-05
600.625 2.88446e-05
600.75 2.85684e-05
600.875 2.82921e-05
601 2.8298e-05
601.125 2.83039e-05
601.25 2.78409e-05
601.375 2.73777e-05
601.5 2.73834e-05
601.625 2.73891e-05
601.75 2.77829e-05
601.875 2.81768e-05
602 2.81826e-05
602.125 2.81885e-05
602.25 2.846e-05
602.375 2.87316e-05
602.5 2.87375e-05
602.625 2.87435e-05
602.75 2.88472e-05
602.875 2.8951e-05
603 2.8957e-05
603.125 2.8963e-05
603.25 2.87424e-05
603.375 2.85217e-05
603.5 2.85276e-05
603.625 2.85335e-05
603.75 2.87558e-05
603.875 2.89782e-05
604 2.89842e-05
604.125 2.89902e-05
604.25 2.9235e-05
604.375 2.948e-05
604.5 2.94861e-05
604.625 2.94922e-05
604.75 2.96146e-05
604.875 2.97372e-05
605 2.97433e-05
605.125 2.97494e-05
605.25 3.01556e-05
605.375 3.05619e-05
605.5 3.05682e-05
605.625 3.05746e-05
605.75 3.06469e-05
605.875 3.07193e-05
606 3.07256e-05
606.125 3.07319e-05
606.25 3.04129e-05
606.375 3.00937e-05
606.5 3.00999e-05
606.625 3.01061e-05
606.75 2.97337e-05
606.875 2.93611e-05
607 2.93672e-05
607.125 2.93732e-05
607.25 2.93187e-05
607.375 2.92642e-05
607.5 2.92702e-05
607.625 2.92762e-05
607.75 2.93868e-05
607.875 2.94974e-05
608 2.95035e-05
608.125 2.95096e-05
608.25 2.90778e-05
608.375 2.86458e-05
608.5 2.86516e-05
608.625 2.86575e-05
608.75 2.90179e-05
608.875 2.93784e-05
609 2.93844e-05
609.125 2.93904e-05
609.25 2.98489e-05
609.375 3.03077e-05
609.5 3.03139e-05
609.625 3.03201e-05
609.75 2.95541e-05
609.875 2.87879e-05
610 2.87938e-05
610.125 2.87997e-05
610.25 2.90405e-05
610.375 2.92814e-05
610.5 2.92874e-05
610.625 2.92934e-05
610.75 2.97813e-05
610.875 3.02695e-05
611 3.02757e-05
611.125 3.02819e-05
611.25 3.05025e-05
611.375 3.07232e-05
611.5 3.07295e-05
611.625 3.07358e-05
611.75 3.07144e-05
611.875 3.06931e-05
612 3.06994e-05
612.125 3.07057e-05
612.25 3.0575e-05
612.375 3.04443e-05
612.5 3.04505e-05
612.625 3.04567e-05
612.75 3.02242e-05
612.875 2.99917e-05
613 2.99978e-05
613.125 3.00039e-05
613.25 2.97195e-05
613.375 2.94351e-05
613.5 2.94411e-05
613.625 2.94471e-05
613.75 2.93705e-05
613.875 2.92939e-05
614 2.92999e-05
614.125 2.93059e-05
614.25 2.95343e-05
614.375 2.97629e-05
614.5 2.9769e-05
614.625 2.9775e-05
614.75 2.93989e-05
614.875 2.90226e-05
615 2.90285e-05
615.125 2.90344e-05
615.25 2.88174e-05
615.375 2.86004e-05
615.5 2.86062e-05
615.625 2.8612e-05
615.75 2.86168e-05
615.875 2.86216e-05
616 2.86274e-05
616.125 2.86332e-05
616.25 2.8233e-05
616.375 2.78325e-05
616.5 2.78382e-05
616.625 2.78438e-05
616.75 2.74447e-05
616.875 2.70453e-05
617 2.70508e-05
617.125 2.70563e-05
617.25 2.67175e-05
617.375 2.63786e-05
617.5 2.63839e-05
617.625 2.63893e-05
617.75 2.73852e-05
617.875 2.83816e-05
618 2.83873e-05
618.125 2.83931e-05
618.25 2.88728e-05
618.375 2.93527e-05
618.5 2.93586e-05
618.625 2.93645e-05
618.75 2.94585e-05
618.875 2.95525e-05
619 2.95585e-05
619.125 2.95644e-05
619.25 2.9852e-05
619.375 3.01397e-05
619.5 3.01458e-05
619.625 3.01519e-05
619.75 3.02835e-05
619.875 3.04151e-05
620 3.04213e-05
620.125 3.04274e-05
620.25 3.03769e-05
620.375 3.03264e-05
620.5 3.03325e-05
620.625 3.03386e-05
620.75 2.96789e-05
620.875 2.9019e-05
621 2.90248e-05
621.125 2.90307e-05
621.25 2.88156e-05
621.375 2.86004e-05
621.5 2.86061e-05
621.625 2.86119e-05
621.75 2.86532e-05
621.875 2.86945e-05
622 2.87002e-05
622.125 2.8706e-05
622.25 2.86831e-05
622.375 2.86602e-05
622.5 2.86659e-05
622.625 2.86717e-05
622.75 2.86564e-05
622.875 2.86411e-05
623 2.86468e-05
623.125 2.86526e-05
623.25 2.86363e-05
623.375 2.862e-05
623.5 2.86257e-05
623.625 2.86315e-05
623.75 2.85866e-05
623.875 2.85418e-05
624 2.85475e-05
624.125 2.85533e-05
624.25 2.85574e-05
624.375 2.85615e-05
624.5 2.85673e-05
624.625 2.8573e-05
624.75 2.86604e-05
624.875 2.87478e-05
625 2.87535e-05
625.125 2.87593e-05
625.25 2.91427e-05
625.375 2.95263e-05
625.5 2.95322e-05
625.625 2.95381e-05
625.75 2.97133e-05
625.875 2.98886e-05
626 2.98946e-05
626.125 2.99006e-05
626.25 2.99971e-05
626.375 3.00937e-05
626.5 3.00997e-05
626.625 3.01057e-05
626.75 3.03286e-05
626.875 3.05516e-05
627 3.05577e-05
627.125 3.05638e-05
627.25 3.07825e-05
627.375 3.10013e-05
627.5 3.10075e-05
627.625 3.10137e-05
627.75 3.11773e-05
627.875 3.1341e-05
628 3.13472e-05
628.125 3.13534e-05
628.25 3.12453e-05
628.375 3.1137e-05
628.5 3.11432e-05
628.625 3.11494e-05
628.75 3.13136e-05
628.875 3.14779e-05
629 3.14841e-05
629.125 3.14904e-05
629.25 3.1743e-05
629.375 3.19956e-05
629.5 3.2002e-05
629.625 3.20083e-05
629.75 3.1965e-05
629.875 3.19216e-05
630 3.1928e-05
630.125 3.19343e-05
630.25 3.18064e-05
630.375 3.16785e-05
630.5 3.16848e-05
630.625 3.16911e-05
630.75 3.15188e-05
630.875 3.13464e-05
631 3.13526e-05
631.125 3.13589e-05
631.25 3.12015e-05
631.375 3.10441e-05
631.5 3.10502e-05
631.625 3.10564e-05
631.75 3.1126e-05
631.875 3.11957e-05
632 3.12019e-05
632.125 3.12081e-05
632.25 3.14025e-05
632.375 3.1597e-05
632.5 3.16033e-05
632.625 3.16095e-05
632.75 3.169e-05
632.875 3.17705e-05
633 3.17768e-05
633.125 3.17831e-05
633.25 3.16435e-05
633.375 3.15038e-05
633.5 3.151e-05
633.625 3.15162e-05
633.75 3.12535e-05
633.875 3.09907e-05
634 3.09968e-05
634.125 3.10029e-05
634.25 3.10947e-05
634.375 3.11865e-05
634.5 3.11927e-05
634.625 3.11988e-05
634.75 3.12883e-05
634.875 3.13778e-05
635 3.13839e-05
635.125 3.13901e-05
635.25 3.14761e-05
635.375 3.15622e-05
635.5 3.15684e-05
635.625 3.15746e-05
635.75 3.16161e-05
635.875 3.16576e-05
636 3.16638e-05
636.125 3.167e-05
636.25 3.17415e-05
636.375 3.18129e-05
636.5 3.18192e-05
636.625 3.18254e-05
636.75 3.19255e-05
636.875 3.20255e-05
637 3.20318e-05
637.125 3.20381e-05
637.25 3.23622e-05
637.375 3.26864e-05
637.5 3.26928e-05
637.625 3.26992e-05
637.75 3.29125e-05
637.875 3.31259e-05
638 3.31324e-05
638.125 3.31389e-05
638.25 3.32188e-05
638.375 3.32987e-05
638.5 3.33052e-05
638.625 3.33117e-05
638.75 3.30655e-05
638.875 3.28192e-05
639 3.28256e-05
639.125 3.2832e-05
639.25 3.27055e-05
639.375 3.25789e-05
639.5 3.25853e-05
639.625 3.25917e-05
639.75 3.26788e-05
639.875 3.27659e-05
640 3.27723e-05
640.125 3.27787e-05
640.25 3.27301e-05
640.375 3.26815e-05
640.5 3.26878e-05
640.625 3.26942e-05
640.75 3.26058e-05
640.875 3.25173e-05
641 3.25237e-05
641.125 3.253e-05
641.25 3.2403e-05
641.375 3.2276e-05
641.5 3.22823e-05
641.625 3.22886e-05
641.75 3.23359e-05
641.875 3.23833e-05
642 3.23896e-05
642.125 3.23959e-05
642.25 3.24355e-05
642.375 3.2475e-05
642.5 3.24813e-05
642.625 3.24876e-05
642.75 3.23831e-05
642.875 3.22786e-05
643 3.22849e-05
643.125 3.22912e-05
643.25 3.24166e-05
643.375 3.25421e-05
643.5 3.25485e-05
643.625 3.25548e-05
643.75 3.27384e-05
643.875 3.29221e-05
644 3.29285e-05
644.125 3.29349e-05
644.25 3.29862e-05
644.375 3.30375e-05
644.5 3.30439e-05
644.625 3.30504e-05
644.75 3.29713e-05
644.875 3.28922e-05
645 3.28986e-05
645.125 3.2905e-05
645.25 3.27936e-05
645.375 3.26823e-05
645.5 3.26886e-05
645.625 3.26949e-05
645.75 3.29799e-05
645.875 3.3265e-05
646 3.32714e-05
646.125 3.32779e-05
646.25 3.31904e-05
646.375 3.31028e-05
646.5 3.31092e-05
646.625 3.31156e-05
646.75 3.27208e-05
646.875 3.23258e-05
647 3.23321e-05
647.125 3.23383e-05
647.25 3.26354e-05
647.375 3.29326e-05
647.5 3.29389e-05
647.625 3.29453e-05
647.75 3.30485e-05
647.875 3.31518e-05
648 3.31582e-05
648.125 3.31646e-05
648.25 3.3029e-05
648.375 3.28933e-05
648.5 3.28997e-05
648.625 3.2906e-05
648.75 3.2624e-05
648.875 3.23419e-05
649 3.23481e-05
649.125 3.23544e-05
649.25 3.21368e-05
649.375 3.19192e-05
649.5 3.19253e-05
649.625 3.19315e-05
649.75 3.18703e-05
649.875 3.18092e-05
650 3.18153e-05
650.125 3.18214e-05
650.25 3.20604e-05
650.375 3.22995e-05
650.5 3.23057e-05
650.625 3.23119e-05
650.75 3.25884e-05
650.875 3.28651e-05
651 3.28714e-05
651.125 3.28777e-05
651.25 3.30052e-05
651.375 3.31328e-05
651.5 3.31391e-05
651.625 3.31455e-05
651.75 3.32008e-05
651.875 3.32562e-05
652 3.32626e-05
652.125 3.32689e-05
652.25 3.33019e-05
652.375 3.33349e-05
652.5 3.33413e-05
652.625 3.33477e-05
652.75 3.34936e-05
652.875 3.36395e-05
653 3.3646e-05
653.125 3.36524e-05
653.25 3.38412e-05
653.375 3.40301e-05
653.5 3.40366e-05
653.625 3.40431e-05
653.75 3.4268e-05
653.875 3.4493e-05
654 3.44996e-05
654.125 3.45062e-05
654.25 3.46269e-05
654.375 3.47476e-05
654.5 3.47543e-05
654.625 3.47609e-05
654.75 3.47837e-05
654.875 3.48066e-05
655 3.48132e-05
655.125 3.48198e-05
655.25 3.47054e-05
655.375 3.45909e-05
655.5 3.45975e-05
655.625 3.46041e-05
655.75 3.57876e-05
655.875 3.69715e-05
656 3.69786e-05
656.125 3.69856e-05
656.25 3.76964e-05
656.375 3.84075e-05
656.5 3.84148e-05
656.625 3.84221e-05
656.75 3.7196e-05
656.875 3.59695e-05
657 3.59763e-05
657.125 3.59831e-05
657.25 3.5688e-05
657.375 3.53927e-05
657.5 3.53994e-05
657.625 3.54062e-05
657.75 3.56032e-05
657.875 3.58002e-05
658 3.5807e-05
658.125 3.58138e-05
658.25 3.66468e-05
658.375 3.74801e-05
658.5 3.74872e-05
658.625 3.74943e-05
658.75 3.69334e-05
658.875 3.63724e-05
659 3.63793e-05
659.125 3.63862e-05
659.25 3.46659e-05
659.375 3.2945e-05
659.5 3.29513e-05
659.625 3.29575e-05
659.75 3.27688e-05
659.875 3.258e-05
660 3.25862e-05
660.125 3.25924e-05
660.25 3.26018e-05
660.375 3.26111e-05
660.5 3.26173e-05
660.625 3.26235e-05
660.75 3.28649e-05
660.875 3.31063e-05
661 3.31126e-05
661.125 3.31188e-05
661.25 3.33292e-05
661.375 3.35396e-05
661.5 3.35459e-05
661.625 3.35523e-05
661.75 3.36213e-05
661.875 3.36903e-05
662 3.36967e-05
662.125 3.37031e-05
662.25 3.32989e-05
662.375 3.28946e-05
662.5 3.29008e-05
662.625 3.2907e-05
662.75 3.273e-05
662.875 3.25529e-05
663 3.2559e-05
663.125 3.25652e-05
663.25 3.25282e-05
663.375 3.24912e-05
663.5 3.24974e-05
663.625 3.25035e-05
663.75 3.26546e-05
663.875 3.28057e-05
664 3.28119e-05
664.125 3.28181e-05
664.25 3.2901e-05
664.375 3.2984e-05
664.5 3.29902e-05
664.625 3.29964e-05
664.75 3.29984e-05
664.875 3.30003e-05
665 3.30065e-05
665.125 3.30127e-05
665.25 3.30299e-05
665.375 3.30471e-05
665.5 3.30533e-05
665.625 3.30595e-05
665.75 3.30462e-05
665.875 3.30329e-05
666 3.30391e-05
666.125 3.30454e-05
666.25 3.29436e-05
666.375 3.28417e-05
666.5 3.28479e-05
666.625 3.2854e-05
666.75 3.29413e-05
666.875 3.30286e-05
667 3.30348e-05
667.125 3.3041e-05
667.25 3.31844e-05
667.375 3.33279e-05
667.5 3.33342e-05
667.625 3.33404e-05
667.75 3.30746e-05
667.875 3.28087e-05
668 3.28149e-05
668.125 3.2821e-05
668.25 3.2764e-05
668.375 3.2707e-05
668.5 3.27131e-05
668.625 3.27192e-05
668.75 3.28909e-05
668.875 3.30626e-05
669 3.30687e-05
669.125 3.30749e-05
669.25 3.30113e-05
669.375 3.29477e-05
669.5 3.29538e-05
669.625 3.296e-05
669.75 3.29198e-05
669.875 3.28795e-05
670 3.28857e-05
670.125 3.28918e-05
670.25 3.30021e-05
670.375 3.31123e-05
670.5 3.31185e-05
670.625 3.31247e-05
670.75 3.34895e-05
670.875 3.38545e-05
671 3.38608e-05
671.125 3.38671e-05
671.25 3.43257e-05
671.375 3.47844e-05
671.5 3.47909e-05
671.625 3.47973e-05
671.75 3.47548e-05
671.875 3.47122e-05
672 3.47186e-05
672.125 3.47251e-05
672.25 3.48193e-05
672.375 3.49135e-05
672.5 3.492e-05
672.625 3.49265e-05
672.75 3.51869e-05
672.875 3.54475e-05
673 3.5454e-05
673.125 3.54606e-05
673.25 3.51248e-05
673.375 3.47889e-05
673.5 3.47953e-05
673.625 3.48018e-05
673.75 3.44095e-05
673.875 3.40171e-05
674 3.40234e-05
674.125 3.40297e-05
674.25 3.38297e-05
674.375 3.36297e-05
674.5 3.36359e-05
674.625 3.36421e-05
674.75 3.33685e-05
674.875 3.30948e-05
675 3.31009e-05
675.125 3.3107e-05
675.25 3.27869e-05
675.375 3.24667e-05
675.5 3.24727e-05
675.625 3.24787e-05
675.75 3.26554e-05
675.875 3.28321e-05
676 3.28382e-05
676.125 3.28442e-05
676.25 3.29522e-05
676.375 3.30602e-05
676.5 3.30663e-05
676.625 3.30724e-05
676.75 3.30633e-05
676.875 3.30542e-05
677 3.30603e-05
677.125 3.30664e-05
677.25 3.31284e-05
677.375 3.31904e-05
677.5 3.31966e-05
677.625 3.32027e-05
677.75 3.32914e-05
677.875 3.33801e-05
678 3.33863e-05
678.125 3.33924e-05
678.25 3.3506e-05
678.375 3.36196e-05
678.5 3.36258e-05
678.625 3.3632e-05
678.75 3.36298e-05
678.875 3.36275e-05
679 3.36337e-05
679.125 3.36399e-05
679.25 3.35259e-05
679.375 3.34119e-05
679.5 3.34181e-05
679.625 3.34242e-05
679.75 3.34993e-05
679.875 3.35745e-05
680 3.35806e-05
680.125 3.35868e-05
680.25 3.36751e-05
680.375 3.37634e-05
680.5 3.37696e-05
680.625 3.37758e-05
680.75 3.38291e-05
680.875 3.38825e-05
681 3.38887e-05
681.125 3.38949e-05
681.25 3.39852e-05
681.375 3.40755e-05
681.5 3.40817e-05
681.625 3.4088e-05
681.75 3.42005e-05
681.875 3.4313e-05
682 3.43193e-05
682.125 3.43256e-05
682.25 3.40497e-05
682.375 3.37738e-05
682.5 3.378e-05
682.625 3.37862e-05
682.75 3.36181e-05
682.875 3.345e-05
683 3.34561e-05
683.125 3.34622e-05
683.25 3.34942e-05
683.375 3.35263e-05
683.5 3.35324e-05
683.625 3.35385e-05
683.75 3.34497e-05
683.875 3.33608e-05
684 3.33669e-05
684.125 3.3373e-05
684.25 3.32498e-05
684.375 3.31266e-05
684.5 3.31326e-05
684.625 3.31387e-05
684.75 3.31531e-05
684.875 3.31675e-05
685 3.31736e-05
685.125 3.31797e-05
685.25 3.31966e-05
685.375 3.32135e-05
685.5 3.32196e-05
685.625 3.32256e-05
685.75 3.32457e-05
685.875 3.32657e-05
686 3.32718e-05
686.125 3.32779e-05
686.25 3.33523e-05
686.375 3.34267e-05
686.5 3.34328e-05
686.625 3.34388e-05
686.75 3.3529e-05
686.875 3.36192e-05
687 3.36253e-05
687.125 3.36315e-05
687.25 3.37333e-05
687.375 3.38351e-05
687.5 3.38412e-05
687.625 3.38474e-05
687.75 3.38824e-05
687.875 3.39175e-05
688 3.39236e-05
688.125 3.39298e-05
688.25 3.39006e-05
688.375 3.38714e-05
688.5 3.38775e-05
688.625 3.38837e-05
688.75 3.41134e-05
688.875 3.43432e-05
689 3.43495e-05
689.125 3.43557e-05
689.25 3.45951e-05
689.375 3.48345e-05
689.5 3.48408e-05
689.625 3.48472e-05
689.75 3.49683e-05
689.875 3.50896e-05
690 3.50959e-05
690.125 3.51023e-05
690.25 3.52867e-05
690.375 3.54712e-05
690.5 3.54776e-05
690.625 3.54841e-05
690.75 3.57184e-05
690.875 3.59528e-05
691 3.59593e-05
691.125 3.59658e-05
691.25 3.57379e-05
691.375 3.551e-05
691.5 3.55164e-05
691.625 3.55228e-05
691.75 3.52881e-05
691.875 3.50534e-05
692 3.50597e-05
692.125 3.5066e-05
692.25 3.4956e-05
692.375 3.48459e-05
692.5 3.48522e-05
692.625 3.48585e-05
692.75 3.4823e-05
692.875 3.47875e-05
693 3.47938e-05
693.125 3.48001e-05
693.25 3.48161e-05
693.375 3.48322e-05
693.5 3.48385e-05
693.625 3.48448e-05
693.75 3.49756e-05
693.875 3.51065e-05
694 3.51128e-05
694.125 3.51191e-05
694.25 3.51915e-05
694.375 3.52639e-05
694.5 3.52702e-05
694.625 3.52766e-05
694.75 3.51676e-05
694.875 3.50585e-05
695 3.50648e-05
695.125 3.50711e-05
695.25 3.51477e-05
695.375 3.52243e-05
695.5 3.52307e-05
695.625 3.5237e-05
695.75 3.54344e-05
695.875 3.56318e-05
696 3.56382e-05
696.125 3.56446e-05
696.25 3.57116e-05
696.375 3.57785e-05
696.5 3.57849e-05
696.625 3.57914e-05
696.75 3.57794e-05
696.875 3.57674e-05
697 3.57738e-05
697.125 3.57802e-05
697.25 3.55791e-05
697.375 3.53779e-05
697.5 3.53842e-05
697.625 3.53906e-05
697.75 3.53175e-05
697.875 3.52445e-05
698 3.52508e-05
698.125 3.52571e-05
698.25 3.52688e-05
698.375 3.52805e-05
698.5 3.52869e-05
698.625 3.52932e-05
698.75 3.54433e-05
698.875 3.55936e-05
699 3.55999e-05
699.125 3.56063e-05
699.25 3.56787e-05
699.375 3.57511e-05
699.5 3.57575e-05
699.625 3.57639e-05
699.75 3.55805e-05
699.875 3.53969e-05
700 3.54033e-05
700.125 3.54096e-05
700.25 3.53977e-05
700.375 3.53859e-05
700.5 3.53922e-05
700.625 3.53985e-05
700.75 3.55111e-05
700.875 3.56237e-05
701 3.563e-05
701.125 3.56364e-05
701.25 3.55472e-05
701.375 3.54579e-05
701.5 3.54643e-05
701.625 3.54706e-05
701.75 3.54023e-05
701.875 3.5334e-05
702 3.53402e-05
702.125 3.53465e-05
702.25 3.54281e-05
702.375 3.55098e-05
702.5 3.55161e-05
702.625 3.55224e-05
702.75 3.55522e-05
702.875 3.55819e-05
703 3.55882e-05
703.125 3.55946e-05
703.25 3.55802e-05
703.375 3.55659e-05
703.5 3.55722e-05
703.625 3.55785e-05
703.75 3.5895e-05
703.875 3.62117e-05
704 3.62181e-05
704.125 3.62245e-05
704.25 3.64822e-05
704.375 3.674e-05
704.5 3.67465e-05
704.625 3.6753e-05
704.75 3.64517e-05
704.875 3.61503e-05
705 3.61567e-05
705.125 3.61632e-05
705.25 3.58102e-05
705.375 3.54571e-05
705.5 3.54634e-05
705.625 3.54697e-05
705.75 3.50613e-05
705.875 3.46527e-05
706 3.46588e-05
706.125 3.4665e-05
706.25 3.44729e-05
706.375 3.42808e-05
706.5 3.42869e-05
706.625 3.42929e-05
706.75 3.41849e-05
706.875 3.40769e-05
707 3.4083e-05
707.125 3.4089e-05
707.25 3.42279e-05
707.375 3.43668e-05
707.5 3.43728e-05
707.625 3.43789e-05
707.75 3.43701e-05
707.875 3.43612e-05
708 3.43673e-05
708.125 3.43734e-05
708.25 3.41483e-05
708.375 3.39231e-05
708.5 3.39291e-05
708.625 3.39351e-05
708.75 3.3772e-05
708.875 3.3609e-05
709 3.36149e-05
709.125 3.36208e-05
709.25 3.34842e-05
709.375 3.33476e-05
709.5 3.33535e-05
709.625 3.33593e-05
709.75 3.32994e-05
709.875 3.32394e-05
710 3.32453e-05
710.125 3.32511e-05
710.25 3.32521e-05
710.375 3.32531e-05
710.5 3.3259e-05
710.625 3.32648e-05
710.75 3.34012e-05
710.875 3.35377e-05
711 3.35436e-05
711.125 3.35495e-05
711.25 3.362e-05
711.375 3.36904e-05
711.5 3.36963e-05
711.625 3.37023e-05
711.75 3.37302e-05
711.875 3.37581e-05
712 3.37641e-05
712.125 3.377e-05
712.25 3.34679e-05
712.375 3.31658e-05
712.5 3.31716e-05
712.625 3.31774e-05
712.75 3.29219e-05
712.875 3.26663e-05
713 3.2672e-05
713.125 3.26777e-05
713.25 3.2752e-05
713.375 3.28264e-05
713.5 3.28321e-05
713.625 3.28379e-05
713.75 3.28585e-05
713.875 3.28792e-05
714 3.28849e-05
714.125 3.28907e-05
714.25 3.28555e-05
714.375 3.28202e-05
714.5 3.2826e-05
714.625 3.28317e-05
714.75 3.30657e-05
714.875 3.32998e-05
715 3.33056e-05
715.125 3.33114e-05
715.25 3.35992e-05
715.375 3.3887e-05
715.5 3.38929e-05
715.625 3.38988e-05
715.75 3.38691e-05
715.875 3.38394e-05
716 3.38453e-05
716.125 3.38512e-05
716.25 3.37822e-05
716.375 3.37131e-05
716.5 3.3719e-05
716.625 3.37249e-05
716.75 3.35834e-05
716.875 3.34419e-05
717 3.34478e-05
717.125 3.34536e-05
717.25 3.35216e-05
717.375 3.35896e-05
717.5 3.35954e-05
717.625 3.36013e-05
717.75 3.37891e-05
717.875 3.3977e-05
718 3.39829e-05
718.125 3.39888e-05
718.25 3.35849e-05
718.375 3.31809e-05
718.5 3.31867e-05
718.625 3.31925e-05
718.75 3.28833e-05
718.875 3.25741e-05
719 3.25798e-05
719.125 3.25854e-05
719.25 3.28843e-05
719.375 3.31833e-05
719.5 3.31891e-05
719.625 3.31948e-05
719.75 3.34492e-05
719.875 3.37037e-05
720 3.37096e-05
720.125 3.37154e-05
720.25 3.39204e-05
720.375 3.41255e-05
720.5 3.41314e-05
720.625 3.41373e-05
720.75 3.3925e-05
720.875 3.37126e-05
721 3.37184e-05
721.125 3.37243e-05
721.25 3.33861e-05
721.375 3.30478e-05
721.5 3.30535e-05
721.625 3.30592e-05
721.75 3.33494e-05
721.875 3.36397e-05
722 3.36455e-05
722.125 3.36514e-05
722.25 3.39116e-05
722.375 3.41719e-05
722.5 3.41778e-05
722.625 3.41837e-05
722.75 3.43717e-05
722.875 3.45597e-05
723 3.45657e-05
723.125 3.45716e-05
723.25 3.46117e-05
723.375 3.46518e-05
723.5 3.46578e-05
723.625 3.46638e-05
723.75 3.45887e-05
723.875 3.45135e-05
724 3.45195e-05
724.125 3.45254e-05
724.25 3.4531e-05
724.375 3.45365e-05
724.5 3.45425e-05
724.625 3.45484e-05
724.75 3.45731e-05
724.875 3.45978e-05
725 3.46038e-05
725.125 3.46097e-05
725.25 3.46586e-05
725.375 3.47074e-05
725.5 3.47134e-05
725.625 3.47194e-05
725.75 3.48158e-05
725.875 3.49123e-05
726 3.49183e-05
726.125 3.49243e-05
726.25 3.51066e-05
726.375 3.5289e-05
726.5 3.52951e-05
726.625 3.53012e-05
726.75 3.54175e-05
726.875 3.55338e-05
727 3.55399e-05
727.125 3.5546e-05
727.25 3.56213e-05
727.375 3.56967e-05
727.5 3.57028e-05
727.625 3.57089e-05
727.75 3.53866e-05
727.875 3.50642e-05
728 3.50703e-05
728.125 3.50763e-05
728.25 3.4773e-05
728.375 3.44695e-05
728.5 3.44755e-05
728.625 3.44814e-05
728.75 3.46698e-05
728.875 3.48583e-05
729 3.48643e-05
729.125 3.48703e-05
729.25 3.50501e-05
729.375 3.523e-05
729.5 3.5236e-05
729.625 3.52421e-05
729.75 3.54083e-05
729.875 3.55747e-05
730 3.55808e-05
730.125 3.55868e-05
730.25 3.58619e-05
730.375 3.61371e-05
730.5 3.61432e-05
730.625 3.61494e-05
730.75 3.64861e-05
730.875 3.68229e-05
731 3.68292e-05
731.125 3.68355e-05
731.25 3.66806e-05
731.375 3.65255e-05
731.5 3.65318e-05
731.625 3.6538e-05
731.75 3.63538e-05
731.875 3.61696e-05
732 3.61758e-05
732.125 3.61819e-05
732.25 3.61982e-05
732.375 3.62145e-05
732.5 3.62206e-05
732.625 3.62268e-05
732.75 3.62693e-05
732.875 3.63118e-05
733 3.6318e-05
733.125 3.63242e-05
733.25 3.64091e-05
733.375 3.6494e-05
733.5 3.65002e-05
733.625 3.65064e-05
733.75 3.6601e-05
733.875 3.66956e-05
734 3.67018e-05
734.125 3.67081e-05
734.25 3.68084e-05
734.375 3.69088e-05
734.5 3.69151e-05
734.625 3.69214e-05
734.75 3.66716e-05
734.875 3.64218e-05
735 3.6428e-05
735.125 3.64342e-05
735.25 3.61677e-05
735.375 3.59011e-05
735.5 3.59072e-05
735.625 3.59133e-05
735.75 3.59436e-05
735.875 3.59738e-05
736 3.59799e-05
736.125 3.5986e-05
736.25 3.60917e-05
736.375 3.61973e-05
736.5 3.62035e-05
736.625 3.62096e-05
736.75 3.6458e-05
736.875 3.67065e-05
737 3.67127e-05
737.125 3.67189e-05
737.25 3.69499e-05
737.375 3.71809e-05
737.5 3.71872e-05
737.625 3.71935e-05
737.75 3.74119e-05
737.875 3.76304e-05
738 3.76367e-05
738.125 3.76431e-05
738.25 3.7505e-05
738.375 3.73668e-05
738.5 3.73731e-05
738.625 3.73794e-05
738.75 3.71815e-05
738.875 3.69835e-05
739 3.69898e-05
739.125 3.69961e-05
739.25 3.72365e-05
739.375 3.74771e-05
739.5 3.74834e-05
739.625 3.74897e-05
739.75 3.76569e-05
739.875 3.78241e-05
740 3.78305e-05
740.125 3.78369e-05
740.25 3.78115e-05
740.375 3.77862e-05
740.5 3.77925e-05
740.625 3.77989e-05
740.75 3.76848e-05
740.875 3.75707e-05
741 3.7577e-05
741.125 3.75833e-05
741.25 3.73812e-05
741.375 3.7179e-05
741.5 3.71853e-05
741.625 3.71916e-05
741.75 3.71084e-05
741.875 3.70252e-05
742 3.70314e-05
742.125 3.70376e-05
742.25 3.69991e-05
742.375 3.69605e-05
742.5 3.69668e-05
742.625 3.6973e-05
742.75 3.7179e-05
742.875 3.73852e-05
743 3.73915e-05
743.125 3.73978e-05
743.25 3.76015e-05
743.375 3.78053e-05
743.5 3.78116e-05
743.625 3.7818e-05
743.75 3.79483e-05
743.875 3.80787e-05
744 3.80851e-05
744.125 3.80915e-05
744.25 3.81482e-05
744.375 3.82049e-05
744.5 3.82113e-05
744.625 3.82177e-05
744.75 3.81587e-05
744.875 3.80997e-05
745 3.81061e-05
745.125 3.81125e-05
745.25 3.82656e-05
745.375 3.84188e-05
745.5 3.84252e-05
745.625 3.84317e-05
745.75 3.8723e-05
745.875 3.90144e-05
746 3.9021e-05
746.125 3.90275e-05
746.25 3.88187e-05
746.375 3.86098e-05
746.5 3.86163e-05
746.625 3.86228e-05
746.75 3.8318e-05
746.875 3.80132e-05
747 3.80195e-05
747.125 3.80259e-05
747.25 3.81392e-05
747.375 3.82525e-05
747.5 3.82589e-05
747.625 3.82653e-05
747.75 3.83689e-05
747.875 3.84727e-05
748 3.84791e-05
748.125 3.84855e-05
748.25 3.85591e-05
748.375 3.86328e-05
748.5 3.86392e-05
748.625 3.86457e-05
748.75 3.85998e-05
748.875 3.85538e-05
749 3.85603e-05
749.125 3.85667e-05
749.25 3.83744e-05
749.375 3.81821e-05
749.5 3.81884e-05
749.625 3.81948e-05
749.75 3.81153e-05
749.875 3.80358e-05
750 3.80421e-05
750.125 3.80485e-05
750.25 3.80282e-05
750.375 3.8008e-05
750.5 3.80144e-05
750.625 3.80207e-05
750.75 3.78855e-05
750.875 3.77503e-05
751 3.77566e-05
751.125 3.77629e-05
751.25 3.76237e-05
751.375 3.74846e-05
751.5 3.74908e-05
751.625 3.7497e-05
751.75 3.75876e-05
751.875 3.76781e-05
752 3.76844e-05
752.125 3.76906e-05
752.25 3.77388e-05
752.375 3.77869e-05
752.5 3.77932e-05
752.625 3.77994e-05
752.75 3.77259e-05
752.875 3.76524e-05
753 3.76587e-05
753.125 3.76649e-05
753.25 3.76565e-05
753.375 3.76482e-05
753.5 3.76544e-05
753.625 3.76607e-05
753.75 3.77298e-05
753.875 3.7799e-05
754 3.78052e-05
754.125 3.78115e-05
754.25 3.782e-05
754.375 3.78285e-05
754.5 3.78348e-05
754.625 3.7841e-05
754.75 3.7817e-05
754.875 3.7793e-05
755 3.77993e-05
755.125 3.78055e-05
755.25 3.77678e-05
755.375 3.773e-05
755.5 3.77363e-05
755.625 3.77425e-05
755.75 3.77025e-05
755.875 3.76624e-05
756 3.76686e-05
756.125 3.76749e-05
756.25 3.76405e-05
756.375 3.76062e-05
756.5 3.76124e-05
756.625 3.76186e-05
756.75 3.75833e-05
756.875 3.75481e-05
757 3.75543e-05
757.125 3.75605e-05
757.25 3.7522e-05
757.375 3.74834e-05
757.5 3.74896e-05
757.625 3.74958e-05
757.75 3.74819e-05
757.875 3.74679e-05
758 3.74741e-05
758.125 3.74803e-05
758.25 3.75018e-05
758.375 3.75234e-05
758.5 3.75296e-05
758.625 3.75358e-05
758.75 3.7567e-05
758.875 3.75982e-05
759 3.76044e-05
759.125 3.76106e-05
759.25 3.76485e-05
759.375 3.76864e-05
759.5 3.76926e-05
759.625 3.76988e-05
759.75 3.74301e-05
759.875 3.71613e-05
760 3.71674e-05
760.125 3.71735e-05
760.25 3.68155e-05
760.375 3.64573e-05
760.5 3.64633e-05
760.625 3.64693e-05
760.75 3.68664e-05
760.875 3.72636e-05
761 3.72697e-05
761.125 3.72758e-05
761.25 3.76042e-05
761.375 3.79328e-05
761.5 3.7939e-05
761.625 3.79452e-05
761.75 3.7584e-05
761.875 3.72226e-05
762 3.72287e-05
762.125 3.72348e-05
762.25 3.70944e-05
762.375 3.6954e-05
762.5 3.696e-05
762.625 3.69661e-05
762.75 3.73231e-05
762.875 3.76803e-05
763 3.76864e-05
763.125 3.76926e-05
763.25 3.78381e-05
763.375 3.79836e-05
763.5 3.79898e-05
763.625 3.79961e-05
763.75 3.79131e-05
763.875 3.78302e-05
764 3.78364e-05
764.125 3.78426e-05
764.25 3.76815e-05
764.375 3.75203e-05
764.5 3.75265e-05
764.625 3.75326e-05
764.75 3.73297e-05
764.875 3.71266e-05
765 3.71327e-05
765.125 3.71388e-05
765.25 3.69148e-05
765.375 3.66908e-05
765.5 3.66968e-05
765.625 3.67028e-05
765.75 3.64744e-05
765.875 3.62458e-05
766 3.62517e-05
766.125 3.62576e-05
766.25 3.61039e-05
766.375 3.59501e-05
766.5 3.5956e-05
766.625 3.59618e-05
766.75 3.58498e-05
766.875 3.57377e-05
767 3.57435e-05
767.125 3.57493e-05
767.25 3.5865e-05
767.375 3.59807e-05
767.5 3.59865e-05
767.625 3.59924e-05
767.75 3.61518e-05
767.875 3.63113e-05
768 3.63173e-05
768.125 3.63232e-05
768.25 3.65788e-05
768.375 3.68346e-05
768.5 3.68406e-05
768.625 3.68466e-05
768.75 3.67904e-05
768.875 3.67342e-05
769 3.67402e-05
769.125 3.67462e-05
769.25 3.63429e-05
769.375 3.59395e-05
769.5 3.59453e-05
769.625 3.59511e-05
769.75 3.59914e-05
769.875 3.60317e-05
770 3.60376e-05
770.125 3.60434e-05
770.25 3.63428e-05
770.375 3.66423e-05
770.5 3.66483e-05
770.625 3.66542e-05
770.75 3.67891e-05
770.875 3.69241e-05
771 3.693e-05
771.125 3.6936e-05
771.25 3.70263e-05
771.375 3.71167e-05
771.5 3.71227e-05
771.625 3.71287e-05
771.75 3.69929e-05
771.875 3.6857e-05
772 3.6863e-05
772.125 3.6869e-05
772.25 3.67624e-05
772.375 3.66559e-05
772.5 3.66618e-05
772.625 3.66677e-05
772.75 3.69983e-05
772.875 3.7329e-05
773 3.7335e-05
773.125 3.73411e-05
773.25 3.75861e-05
773.375 3.78312e-05
773.5 3.78374e-05
773.625 3.78435e-05
773.75 3.78181e-05
773.875 3.77927e-05
774 3.77988e-05
774.125 3.7805e-05
774.25 3.76836e-05
774.375 3.75622e-05
774.5 3.75683e-05
774.625 3.75743e-05
774.75 3.7301e-05
774.875 3.70275e-05
775 3.70335e-05
775.125 3.70394e-05
775.25 3.70579e-05
775.375 3.70764e-05
775.5 3.70824e-05
775.625 3.70884e-05
775.75 3.73656e-05
775.875 3.76428e-05
776 3.76489e-05
776.125 3.76549e-05
776.25 3.77163e-05
776.375 3.77778e-05
776.5 3.77838e-05
776.625 3.77899e-05
776.75 3.77467e-05
776.875 3.77034e-05
777 3.77095e-05
777.125 3.77155e-05
777.25 3.78972e-05
777.375 3.80789e-05
777.5 3.80851e-05
777.625 3.80912e-05
777.75 3.83246e-05
777.875 3.85581e-05
778 3.85643e-05
778.125 3.85705e-05
778.25 3.82441e-05
778.375 3.79175e-05
778.5 3.79236e-05
778.625 3.79297e-05
778.75 3.76253e-05
778.875 3.73209e-05
779 3.73269e-05
779.125 3.73328e-05
779.25 3.75653e-05
779.375 3.77979e-05
779.5 3.7804e-05
779.625 3.781e-05
779.75 3.80185e-05
779.875 3.8227e-05
780 3.82331e-05
780.125 3.82392e-05
780.25 3.83622e-05
780.375 3.84852e-05
780.5 3.84913e-05
780.625 3.84975e-05
780.75 3.85891e-05
780.875 3.86807e-05
781 3.86869e-05
781.125 3.86931e-05
781.25 3.87266e-05
781.375 3.87602e-05
781.5 3.87664e-05
781.625 3.87726e-05
781.75 3.8786e-05
781.875 3.87994e-05
782 3.88056e-05
782.125 3.88118e-05
782.25 3.88034e-05
782.375 3.87949e-05
782.5 3.88011e-05
782.625 3.88073e-05
782.75 3.86852e-05
782.875 3.8563e-05
783 3.85691e-05
783.125 3.85753e-05
783.25 3.83794e-05
783.375 3.81834e-05
783.5 3.81895e-05
783.625 3.81956e-05
783.75 3.80262e-05
783.875 3.78568e-05
784 3.78628e-05
784.125 3.78689e-05
784.25 3.77093e-05
784.375 3.75496e-05
784.5 3.75556e-05
784.625 3.75616e-05
784.75 3.76554e-05
784.875 3.77492e-05
785 3.77552e-05
785.125 3.77612e-05
785.25 3.78988e-05
785.375 3.80363e-05
785.5 3.80424e-05
785.625 3.80484e-05
785.75 3.81531e-05
785.875 3.82578e-05
786 3.82639e-05
786.125 3.827e-05
786.25 3.83697e-05
786.375 3.84695e-05
786.5 3.84756e-05
786.625 3.84817e-05
786.75 3.85412e-05
786.875 3.86008e-05
787 3.86069e-05
787.125 3.8613e-05
787.25 3.8638e-05
787.375 3.8663e-05
787.5 3.86691e-05
787.625 3.86753e-05
787.75 3.85667e-05
787.875 3.84581e-05
788 3.84642e-05
788.125 3.84703e-05
788.25 3.83082e-05
788.375 3.8146e-05
788.5 3.81521e-05
788.625 3.81581e-05
788.75 3.78815e-05
788.875 3.76049e-05
789 3.76108e-05
789.125 3.76168e-05
789.25 3.7537e-05
789.375 3.74572e-05
789.5 3.74631e-05
789.625 3.7469e-05
789.75 3.76503e-05
789.875 3.78315e-05
790 3.78375e-05
790.125 3.78435e-05
790.25 3.78752e-05
790.375 3.79068e-05
790.5 3.79128e-05
790.625 3.79188e-05
790.75 3.78223e-05
790.875 3.77258e-05
791 3.77317e-05
791.125 3.77377e-05
791.25 3.75385e-05
791.375 3.73393e-05
791.5 3.73452e-05
791.625 3.73511e-05
791.75 3.70955e-05
791.875 3.68398e-05
792 3.68456e-05
792.125 3.68515e-05
792.25 3.69778e-05
792.375 3.71042e-05
792.5 3.711e-05
792.625 3.71159e-05
792.75 3.73705e-05
792.875 3.76252e-05
793 3.76311e-05
793.125 3.76371e-05
793.25 3.73699e-05
793.375 3.71026e-05
793.5 3.71084e-05
793.625 3.71143e-05
793.75 3.67555e-05
793.875 3.63965e-05
794 3.64023e-05
794.125 3.6408e-05
794.25 3.66587e-05
794.375 3.69094e-05
794.5 3.69152e-05
794.625 3.6921e-05
794.75 3.71887e-05
794.875 3.74563e-05
795 3.74622e-05
795.125 3.74681e-05
795.25 3.7437e-05
795.375 3.7406e-05
795.5 3.74118e-05
795.625 3.74177e-05
795.75 3.7441e-05
795.875 3.74642e-05
796 3.74701e-05
796.125 3.7476e-05
796.25 3.783e-05
796.375 3.81841e-05
796.5 3.81901e-05
796.625 3.81961e-05
796.75 3.84387e-05
796.875 3.86814e-05
797 3.86874e-05
797.125 3.86935e-05
797.25 3.85715e-05
797.375 3.84495e-05
797.5 3.84556e-05
797.625 3.84616e-05
797.75 3.8391e-05
797.875 3.83204e-05
798 3.83264e-05
798.125 3.83324e-05
798.25 3.83686e-05
798.375 3.84048e-05
798.5 3.84108e-05
798.625 3.84168e-05
798.75 3.8485e-05
798.875 3.85532e-05
799 3.85592e-05
799.125 3.85652e-05
799.25 3.86788e-05
799.375 3.87924e-05
799.5 3.87985e-05
799.625 3.88045e-05
799.75 3.89801e-05
799.875 3.91557e-05
800 3.91618e-05
800.125 3.91679e-05
800.25 3.94059e-05
800.375 3.96439e-05
800.5 3.96501e-05
800.625 3.96563e-05
800.75 3.99337e-05
800.875 4.02111e-05
801 4.02174e-05
801.125 4.02236e-05
801.25 4.05292e-05
801.375 4.08349e-05
801.5 4.08413e-05
801.625 4.08476e-05
801.75 4.0882e-05
801.875 4.09164e-05
802 4.09228e-05
802.125 4.09291e-05
802.25 4.08258e-05
802.375 4.07224e-05
802.5 4.07288e-05
802.625 4.07351e-05
802.75 4.04636e-05
802.875 4.01921e-05
803 4.01983e-05
803.125 4.02046e-05
803.25 3.98748e-05
803.375 3.9545e-05
803.5 3.95511e-05
803.625 3.95573e-05
803.75 3.96601e-05
803.875 3.97629e-05
804 3.97691e-05
804.125 3.97752e-05
804.25 3.99741e-05
804.375 4.01729e-05
804.5 4.01792e-05
804.625 4.01854e-05
804.75 3.99653e-05
804.875 3.9745e-05
805 3.97512e-05
805.125 3.97574e-05
805.25 3.9487e-05
805.375 3.92165e-05
805.5 3.92226e-05
805.625 3.92287e-05
805.75 3.92836e-05
805.875 3.93385e-05
806 3.93446e-05
806.125 3.93507e-05
806.25 3.94086e-05
806.375 3.94665e-05
806.5 3.94726e-05
806.625 3.94788e-05
806.75 3.92945e-05
806.875 3.91101e-05
807 3.91162e-05
807.125 3.91222e-05
807.25 3.8961e-05
807.375 3.87996e-05
807.5 3.88056e-05
807.625 3.88116e-05
807.75 3.88513e-05
807.875 3.88909e-05
808 3.88969e-05
808.125 3.89029e-05
808.25 3.89264e-05
808.375 3.89499e-05
808.5 3.89559e-05
808.625 3.89619e-05
808.75 3.89047e-05
808.875 3.88475e-05
809 3.88535e-05
809.125 3.88595e-05
809.25 3.88055e-05
809.375 3.87515e-05
809.5 3.87575e-05
809.625 3.87635e-05
809.75 3.87202e-05
809.875 3.86769e-05
810 3.86829e-05
810.125 3.86888e-05
810.25 3.86789e-05
810.375 3.8669e-05
810.5 3.86749e-05
810.625 3.86809e-05
810.75 3.87524e-05
810.875 3.88239e-05
811 3.88299e-05
811.125 3.88359e-05
811.25 3.90221e-05
811.375 3.92083e-05
811.5 3.92144e-05
811.625 3.92204e-05
811.75 3.96205e-05
811.875 4.00207e-05
812 4.00269e-05
812.125 4.0033e-05
812.25 4.03438e-05
812.375 4.06547e-05
812.5 4.06609e-05
812.625 4.06672e-05
812.75 4.08463e-05
812.875 4.10255e-05
813 4.10318e-05
813.125 4.10381e-05
813.25 4.11219e-05
813.375 4.12057e-05
813.5 4.1212e-05
813.625 4.12183e-05
813.75 4.11891e-05
813.875 4.11598e-05
814 4.11662e-05
814.125 4.11725e-05
814.25 4.10569e-05
814.375 4.09412e-05
814.5 4.09475e-05
814.625 4.09538e-05
814.75 4.07549e-05
814.875 4.05559e-05
815 4.05621e-05
815.125 4.05683e-05
815.25 4.07623e-05
815.375 4.09564e-05
815.5 4.09627e-05
815.625 4.0969e-05
815.75 4.14741e-05
815.875 4.19793e-05
816 4.19857e-05
816.125 4.19922e-05
816.25 4.21699e-05
816.375 4.23477e-05
816.5 4.23542e-05
816.625 4.23607e-05
816.75 4.23236e-05
816.875 4.22865e-05
817 4.22929e-05
817.125 4.22994e-05
817.25 4.21383e-05
817.375 4.19771e-05
817.5 4.19835e-05
817.625 4.19899e-05
817.75 4.17615e-05
817.875 4.15329e-05
818 4.15393e-05
818.125 4.15456e-05
818.25 4.11557e-05
818.375 4.07657e-05
818.5 4.0772e-05
818.625 4.07782e-05
818.75 4.03159e-05
818.875 3.98534e-05
819 3.98595e-05
819.125 3.98655e-05
819.25 3.97525e-05
819.375 3.96395e-05
819.5 3.96456e-05
819.625 3.96516e-05
819.75 3.96686e-05
819.875 3.96855e-05
820 3.96916e-05
820.125 3.96976e-05
820.25 3.96884e-05
820.375 3.96791e-05
820.5 3.96852e-05
820.625 3.96912e-05
820.75 3.9674e-05
820.875 3.96568e-05
821 3.96629e-05
821.125 3.96689e-05
821.25 3.95061e-05
821.375 3.93432e-05
821.5 3.93492e-05
821.625 3.93552e-05
821.75 3.91563e-05
821.875 3.89573e-05
822 3.89632e-05
822.125 3.89692e-05
822.25 3.9267e-05
822.375 3.9565e-05
822.5 3.9571e-05
822.625 3.9577e-05
822.75 3.99745e-05
822.875 4.03721e-05
823 4.03782e-05
823.125 4.03843e-05
823.25 4.04624e-05
823.375 4.05405e-05
823.5 4.05467e-05
823.625 4.05528e-05
823.75 4.05802e-05
823.875 4.06076e-05
824 4.06138e-05
824.125 4.06199e-05
824.25 4.07403e-05
824.375 4.08607e-05
824.5 4.08668e-05
824.625 4.0873e-05
824.75 4.10047e-05
824.875 4.11365e-05
825 4.11427e-05
825.125 4.11489e-05
825.25 4.11205e-05
825.375 4.1092e-05
825.5 4.10982e-05
825.625 4.11044e-05
825.75 4.10611e-05
825.875 4.10179e-05
826 4.10241e-05
826.125 4.10303e-05
826.25 4.09982e-05
826.375 4.09661e-05
826.5 4.09723e-05
826.625 4.09785e-05
826.75 4.09472e-05
826.875 4.09159e-05
827 4.09221e-05
827.125 4.09283e-05
827.25 4.07581e-05
827.375 4.05878e-05
827.5 4.0594e-05
827.625 4.06001e-05
827.75 4.04241e-05
827.875 4.0248e-05
828 4.02541e-05
828.125 4.02602e-05
828.25 4.04682e-05
828.375 4.06763e-05
828.5 4.06825e-05
828.625 4.06886e-05
828.75 4.09053e-05
828.875 4.11221e-05
829 4.11283e-05
829.125 4.11345e-05
829.25 4.097e-05
829.375 4.08054e-05
829.5 4.08116e-05
829.625 4.08177e-05
829.75 4.06499e-05
829.875 4.04821e-05
830 4.04882e-05
830.125 4.04943e-05
830.25 4.02448e-05
830.375 3.99953e-05
830.5 4.00013e-05
830.625 4.00073e-05
830.75 3.97691e-05
830.875 3.95309e-05
831 3.95368e-05
831.125 3.95428e-05
831.25 3.9925e-05
831.375 4.03073e-05
831.5 4.03133e-05
831.625 4.03194e-05
831.75 4.06793e-05
831.875 4.10392e-05
832 4.10454e-05
832.125 4.10515e-05
832.25 4.05963e-05
832.375 4.01409e-05
832.5 4.01469e-05
832.625 4.01529e-05
832.75 3.97131e-05
832.875 3.92731e-05
833 3.9279e-05
833.125 3.92849e-05
833.25 3.93039e-05
833.375 3.9323e-05
833.5 3.93289e-05
833.625 3.93348e-05
833.75 3.93507e-05
833.875 3.93667e-05
834 3.93726e-05
834.125 3.93785e-05
834.25 3.93129e-05
834.375 3.92472e-05
834.5 3.92531e-05
834.625 3.9259e-05
834.75 3.91933e-05
834.875 3.91275e-05
835 3.91334e-05
835.125 3.91392e-05
835.25 3.90703e-05
835.375 3.90014e-05
835.5 3.90073e-05
835.625 3.90131e-05
835.75 3.89607e-05
835.875 3.89083e-05
836 3.89141e-05
836.125 3.89199e-05
836.25 3.92931e-05
836.375 3.96664e-05
836.5 3.96723e-05
836.625 3.96782e-05
836.75 4.00372e-05
836.875 4.03962e-05
837 4.04022e-05
837.125 4.04083e-05
837.25 4.03679e-05
837.375 4.03276e-05
837.5 4.03336e-05
837.625 4.03397e-05
837.75 4.02947e-05
837.875 4.02496e-05
838 4.02556e-05
838.125 4.02616e-05
838.25 4.0053e-05
838.375 3.98442e-05
838.5 3.98502e-05
838.625 3.98561e-05
838.75 3.9656e-05
838.875 3.94559e-05
839 3.94618e-05
839.125 3.94676e-05
839.25 3.96859e-05
839.375 3.99043e-05
839.5 3.99103e-05
839.625 3.99162e-05
839.75 4.01349e-05
839.875 4.03536e-05
840 4.03596e-05
840.125 4.03656e-05
840.25 4.06281e-05
840.375 4.08907e-05
840.5 4.08968e-05
840.625 4.09029e-05
840.75 4.11653e-05
840.875 4.14278e-05
841 4.1434e-05
841.125 4.14401e-05
841.25 4.11475e-05
841.375 4.08548e-05
841.5 4.08609e-05
841.625 4.0867e-05
841.75 4.05728e-05
841.875 4.02785e-05
842 4.02845e-05
842.125 4.02905e-05
842.25 4.01074e-05
842.375 3.99241e-05
842.5 3.99301e-05
842.625 3.9936e-05
842.75 3.9755e-05
842.875 3.9574e-05
843 3.95799e-05
843.125 3.95858e-05
843.25 3.95137e-05
843.375 3.94417e-05
843.5 3.94475e-05
843.625 3.94534e-05
843.75 3.93855e-05
843.875 3.93176e-05
844 3.93234e-05
844.125 3.93292e-05
844.25 3.94165e-05
844.375 3.95038e-05
844.5 3.95097e-05
844.625 3.95155e-05
844.75 3.96121e-05
844.875 3.97086e-05
845 3.97145e-05
845.125 3.97204e-05
845.25 3.98631e-05
845.375 4.00059e-05
845.5 4.00118e-05
845.625 4.00177e-05
845.75 4.01643e-05
845.875 4.0311e-05
846 4.0317e-05
846.125 4.03229e-05
846.25 4.01221e-05
846.375 3.99211e-05
846.5 3.9927e-05
846.625 3.99329e-05
846.75 3.96915e-05
846.875 3.94501e-05
847 3.94559e-05
847.125 3.94617e-05
847.25 3.95126e-05
847.375 3.95635e-05
847.5 3.95693e-05
847.625 3.95752e-05
847.75 3.96707e-05
847.875 3.97663e-05
848 3.97722e-05
848.125 3.9778e-05
848.25 3.96752e-05
848.375 3.95723e-05
848.5 3.95781e-05
848.625 3.9584e-05
848.75 3.94427e-05
848.875 3.93015e-05
849 3.93073e-05
849.125 3.9313e-05
849.25 3.87383e-05
849.375 3.81633e-05
849.5 3.81689e-05
849.625 3.81745e-05
849.75 3.74953e-05
849.875 3.68159e-05
850 3.68214e-05
850.125 3.68268e-05
850.25 3.72371e-05
850.375 3.76476e-05
850.5 3.76531e-05
850.625 3.76586e-05
850.75 3.83923e-05
850.875 3.91261e-05
851 3.91318e-05
851.125 3.91376e-05
851.25 3.92613e-05
851.375 3.9385e-05
851.5 3.93907e-05
851.625 3.93965e-05
851.75 3.92983e-05
851.875 3.92e-05
852 3.92058e-05
852.125 3.92115e-05
852.25 3.91535e-05
852.375 3.90955e-05
852.5 3.91012e-05
852.625 3.9107e-05
852.75 3.90667e-05
852.875 3.90265e-05
853 3.90322e-05
853.125 3.90379e-05
853.25 3.80499e-05
853.375 3.70615e-05
853.5 3.70669e-05
853.625 3.70724e-05
853.75 3.55786e-05
853.875 3.40844e-05
854 3.40894e-05
854.125 3.40943e-05
854.25 3.3948e-05
854.375 3.38017e-05
854.5 3.38066e-05
854.625 3.38115e-05
854.75 3.45344e-05
854.875 3.52575e-05
855 3.52627e-05
855.125 3.52678e-05
855.25 3.62404e-05
855.375 3.72132e-05
855.5 3.72187e-05
855.625 3.72241e-05
855.75 3.83928e-05
855.875 3.95618e-05
856 3.95676e-05
856.125 3.95733e-05
856.25 4.01139e-05
856.375 4.06547e-05
856.5 4.06606e-05
856.625 4.06666e-05
856.75 4.06062e-05
856.875 4.05457e-05
857 4.05516e-05
857.125 4.05576e-05
857.25 4.06226e-05
857.375 4.06877e-05
857.5 4.06937e-05
857.625 4.06996e-05
857.75 4.09124e-05
857.875 4.11253e-05
858 4.11312e-05
858.125 4.11372e-05
858.25 4.14235e-05
858.375 4.17099e-05
858.5 4.1716e-05
858.625 4.1722e-05
858.75 4.21162e-05
858.875 4.25105e-05
859 4.25167e-05
859.125 4.25229e-05
859.25 4.27509e-05
859.375 4.2979e-05
859.5 4.29853e-05
859.625 4.29915e-05
859.75 4.29079e-05
859.875 4.28243e-05
860 4.28305e-05
860.125 4.28367e-05
860.25 4.27175e-05
860.375 4.25982e-05
860.5 4.26044e-05
860.625 4.26106e-05
860.75 4.24035e-05
860.875 4.21965e-05
861 4.22026e-05
861.125 4.22087e-05
861.25 4.20538e-05
861.375 4.18988e-05
861.5 4.19049e-05
861.625 4.1911e-05
861.75 4.19332e-05
861.875 4.19554e-05
862 4.19615e-05
862.125 4.19676e-05
862.25 4.20126e-05
862.375 4.20577e-05
862.5 4.20638e-05
862.625 4.20699e-05
862.75 4.22318e-05
862.875 4.23939e-05
863 4.24e-05
863.125 4.24061e-05
863.25 4.25472e-05
863.375 4.26883e-05
863.5 4.26944e-05
863.625 4.27006e-05
863.75 4.26468e-05
863.875 4.25929e-05
864 4.2599e-05
864.125 4.26052e-05
864.25 4.2547e-05
864.375 4.24887e-05
864.5 4.24949e-05
864.625 4.2501e-05
864.75 4.22845e-05
864.875 4.2068e-05
865 4.20741e-05
865.125 4.20802e-05
865.25 4.18638e-05
865.375 4.16473e-05
865.5 4.16533e-05
865.625 4.16593e-05
865.75 4.04537e-05
865.875 3.92477e-05
866 3.92533e-05
866.125 3.9259e-05
866.25 3.80076e-05
866.375 3.67559e-05
866.5 3.67612e-05
866.625 3.67665e-05
866.75 3.74014e-05
866.875 3.80366e-05
867 3.80421e-05
867.125 3.80475e-05
867.25 3.89355e-05
867.375 3.98238e-05
867.5 3.98295e-05
867.625 3.98353e-05
867.75 4.008e-05
867.875 4.03248e-05
868 4.03306e-05
868.125 4.03364e-05
868.25 4.04255e-05
868.375 4.05147e-05
868.5 4.05206e-05
868.625 4.05264e-05
868.75 4.06992e-05
868.875 4.08721e-05
869 4.0878e-05
869.125 4.08839e-05
869.25 4.10884e-05
869.375 4.12929e-05
869.5 4.12988e-05
869.625 4.13048e-05
869.75 4.16196e-05
869.875 4.19345e-05
870 4.19405e-05
870.125 4.19465e-05
870.25 4.23222e-05
870.375 4.2698e-05
870.5 4.27041e-05
870.625 4.27103e-05
870.75 4.29106e-05
870.875 4.31109e-05
871 4.31171e-05
871.125 4.31233e-05
871.25 4.3186e-05
871.375 4.32488e-05
871.5 4.3255e-05
871.625 4.32612e-05
871.75 4.32769e-05
871.875 4.32926e-05
872 4.32988e-05
872.125 4.3305e-05
872.25 4.32684e-05
872.375 4.32317e-05
872.5 4.32379e-05
872.625 4.32441e-05
872.75 4.32954e-05
872.875 4.33467e-05
873 4.33529e-05
873.125 4.33591e-05
873.25 4.35517e-05
873.375 4.37444e-05
873.5 4.37506e-05
873.625 4.37569e-05
873.75 4.37037e-05
873.875 4.36504e-05
874 4.36566e-05
874.125 4.36629e-05
874.25 4.30135e-05
874.375 4.2364e-05
874.5 4.23701e-05
874.625 4.23761e-05
874.75 4.19319e-05
874.875 4.14875e-05
875 4.14934e-05
875.125 4.14994e-05
875.25 4.18839e-05
875.375 4.22685e-05
875.5 4.22746e-05
875.625 4.22806e-05
875.75 4.26306e-05
875.875 4.29807e-05
876 4.29868e-05
876.125 4.2993e-05
876.25 4.30395e-05
876.375 4.3086e-05
876.5 4.30922e-05
876.625 4.30983e-05
876.75 4.3145e-05
876.875 4.31917e-05
877 4.31979e-05
877.125 4.3204e-05
877.25 4.33472e-05
877.375 4.34905e-05
877.5 4.34967e-05
877.625 4.35029e-05
877.75 4.3646e-05
877.875 4.37892e-05
878 4.37955e-05
878.125 4.38017e-05
878.25 4.36866e-05
878.375 4.35715e-05
878.5 4.35777e-05
878.625 4.35839e-05
878.75 4.34405e-05
878.875 4.3297e-05
879 4.33031e-05
879.125 4.33093e-05
879.25 4.43742e-05
879.375 4.54394e-05
879.5 4.54459e-05
879.625 4.54523e-05
879.75 4.68249e-05
879.875 4.81979e-05
880 4.82048e-05
880.125 4.82116e-05
880.25 4.75414e-05
880.375 4.6871e-05
880.5 4.68776e-05
880.625 4.68843e-05
880.75 4.52984e-05
880.875 4.37122e-05
881 4.37184e-05
881.125 4.37246e-05
881.25 4.32245e-05
881.375 4.27244e-05
881.5 4.27304e-05
881.625 4.27365e-05
881.75 4.30179e-05
881.875 4.32994e-05
882 4.33055e-05
882.125 4.33117e-05
882.25 4.35115e-05
882.375 4.37114e-05
882.5 4.37176e-05
882.625 4.37238e-05
882.75 4.38314e-05
882.875 4.3939e-05
883 4.39452e-05
883.125 4.39514e-05
883.25 4.40072e-05
883.375 4.40629e-05
883.5 4.40691e-05
883.625 4.40754e-05
883.75 4.4037e-05
883.875 4.39987e-05
884 4.40049e-05
884.125 4.40111e-05
884.25 4.4067e-05
884.375 4.4123e-05
884.5 4.41292e-05
884.625 4.41355e-05
884.75 4.44921e-05
884.875 4.48488e-05
885 4.48552e-05
885.125 4.48615e-05
885.25 4.51299e-05
885.375 4.53983e-05
885.5 4.54048e-05
885.625 4.54112e-05
885.75 4.50301e-05
885.875 4.46489e-05
886 4.46552e-05
886.125 4.46615e-05
886.25 4.42805e-05
886.375 4.38995e-05
886.5 4.39057e-05
886.625 4.39119e-05
886.75 4.35296e-05
886.875 4.31473e-05
887 4.31533e-05
887.125 4.31594e-05
887.25 4.27773e-05
887.375 4.2395e-05
887.5 4.2401e-05
887.625 4.2407e-05
887.75 4.25822e-05
887.875 4.27574e-05
888 4.27634e-05
888.125 4.27694e-05
888.25 4.30257e-05
888.375 4.32821e-05
888.5 4.32882e-05
888.625 4.32943e-05
888.75 4.34986e-05
888.875 4.37031e-05
889 4.37092e-05
889.125 4.37153e-05
889.25 4.3902e-05
889.375 4.40887e-05
889.5 4.40949e-05
889.625 4.41011e-05
889.75 4.40337e-05
889.875 4.39662e-05
890 4.39724e-05
890.125 4.39785e-05
890.25 4.37534e-05
890.375 4.35282e-05
890.5 4.35343e-05
890.625 4.35404e-05
890.75 4.33769e-05
890.875 4.32133e-05
891 4.32194e-05
891.125 4.32254e-05
891.25 4.31276e-05
891.375 4.30297e-05
891.5 4.30357e-05
891.625 4.30418e-05
891.75 4.3088e-05
891.875 4.31342e-05
892 4.31402e-05
892.125 4.31463e-05
892.25 4.34599e-05
892.375 4.37737e-05
892.5 4.37798e-05
892.625 4.37859e-05
892.75 4.40915e-05
892.875 4.43971e-05
893 4.44033e-05
893.125 4.44095e-05
893.25 4.46853e-05
893.375 4.49611e-05
893.5 4.49674e-05
893.625 4.49737e-05
893.75 4.51834e-05
893.875 4.53932e-05
894 4.53996e-05
894.125 4.54059e-05
894.25 4.47856e-05
894.375 4.41652e-05
894.5 4.41714e-05
894.625 4.41775e-05
894.75 4.35574e-05
894.875 4.29371e-05
895 4.29431e-05
895.125 4.29491e-05
895.25 4.33216e-05
895.375 4.36942e-05
895.5 4.37003e-05
895.625 4.37064e-05
895.75 4.41517e-05
895.875 4.4597e-05
896 4.46032e-05
896.125 4.46094e-05
896.25 4.45188e-05
896.375 4.44281e-05
896.5 4.44343e-05
896.625 4.44405e-05
896.75 4.42039e-05
896.875 4.39673e-05
897 4.39734e-05
897.125 4.39795e-05
897.25 4.40475e-05
897.375 4.41155e-05
897.5 4.41216e-05
897.625 4.41278e-05
897.75 4.43678e-05
897.875 4.46079e-05
898 4.46141e-05
898.125 4.46203e-05
898.25 4.48354e-05
898.375 4.50505e-05
898.5 4.50568e-05
898.625 4.50631e-05
898.75 4.52521e-05
898.875 4.54412e-05
899 4.54475e-05
899.125 4.54538e-05
899.25 4.55416e-05
899.375 4.56294e-05
899.5 4.56357e-05
899.625 4.56421e-05
899.75 4.55307e-05
899.875 4.54193e-05
900 4.54256e-05
900.125 4.54319e-05
900.25 4.52717e-05
900.375 4.51114e-05
900.5 4.51177e-05
900.625 4.5124e-05
900.75 4.47414e-05
900.875 4.43586e-05
901 4.43648e-05
901.125 4.43709e-05
901.25 4.39945e-05
901.375 4.36179e-05
901.5 4.36239e-05
901.625 4.363e-05
901.75 4.35168e-05
901.875 4.34036e-05
902 4.34097e-05
902.125 4.34157e-05
902.25 4.33026e-05
902.375 4.31894e-05
902.5 4.31954e-05
902.625 4.32014e-05
902.75 4.35341e-05
902.875 4.38668e-05
903 4.38729e-05
903.125 4.3879e-05
903.25 4.42826e-05
903.375 4.46864e-05
903.5 4.46926e-05
903.625 4.46988e-05
903.75 4.48603e-05
903.875 4.50219e-05
904 4.50282e-05
904.125 4.50344e-05
904.25 4.50921e-05
904.375 4.51498e-05
904.5 4.5156e-05
904.625 4.51623e-05
904.75 4.52839e-05
904.875 4.54056e-05
905 4.54118e-05
905.125 4.54181e-05
905.25 4.55956e-05
905.375 4.57731e-05
905.5 4.57795e-05
905.625 4.57858e-05
905.75 4.5867e-05
905.875 4.59483e-05
906 4.59547e-05
906.125 4.5961e-05
906.25 4.58755e-05
906.375 4.579e-05
906.5 4.57963e-05
906.625 4.58027e-05
906.75 4.57349e-05
906.875 4.5667e-05
907 4.56733e-05
907.125 4.56796e-05
907.25 4.56845e-05
907.375 4.56895e-05
907.5 4.56958e-05
907.625 4.5702e-05
907.75 4.56917e-05
907.875 4.56814e-05
908 4.56877e-05
908.125 4.5694e-05
908.25 4.50221e-05
908.375 4.435e-05
908.5 4.43561e-05
908.625 4.43622e-05
908.75 4.36905e-05
908.875 4.30185e-05
909 4.30245e-05
909.125 4.30304e-05
909.25 4.32784e-05
909.375 4.35265e-05
909.5 4.35325e-05
909.625 4.35384e-05
909.75 4.39539e-05
909.875 4.43695e-05
910 4.43756e-05
910.125 4.43817e-05
910.25 4.46295e-05
910.375 4.48773e-05
910.5 4.48835e-05
910.625 4.48897e-05
910.75 4.50539e-05
910.875 4.52183e-05
911 4.52245e-05
911.125 4.52307e-05
911.25 4.53073e-05
911.375 4.53839e-05
911.5 4.53901e-05
911.625 4.53964e-05
911.75 4.53805e-05
911.875 4.53647e-05
912 4.53709e-05
912.125 4.53771e-05
912.25 4.53474e-05
912.375 4.53178e-05
912.5 4.5324e-05
912.625 4.53302e-05
912.75 4.52688e-05
912.875 4.52073e-05
913 4.52135e-05
913.125 4.52197e-05
913.25 4.51825e-05
913.375 4.51452e-05
913.5 4.51514e-05
913.625 4.51576e-05
913.75 4.53023e-05
913.875 4.5447e-05
914 4.54532e-05
914.125 4.54594e-05
914.25 4.56041e-05
914.375 4.57488e-05
914.5 4.57551e-05
914.625 4.57613e-05
914.75 4.56336e-05
914.875 4.55058e-05
915 4.5512e-05
915.125 4.55183e-05
915.25 4.53693e-05
915.375 4.52203e-05
915.5 4.52265e-05
915.625 4.52327e-05
915.75 4.54185e-05
915.875 4.56044e-05
916 4.56106e-05
916.125 4.56168e-05
916.25 4.59225e-05
916.375 4.62282e-05
916.5 4.62345e-05
916.625 4.62408e-05
916.75 4.62291e-05
916.875 4.62173e-05
917 4.62236e-05
917.125 4.62299e-05
917.25 4.59504e-05
917.375 4.56707e-05
917.5 4.5677e-05
917.625 4.56832e-05
917.75 4.55287e-05
917.875 4.53742e-05
918 4.53803e-05
918.125 4.53865e-05
918.25 4.54686e-05
918.375 4.55507e-05
918.5 4.55569e-05
918.625 4.55631e-05
918.75 4.55964e-05
918.875 4.56298e-05
919 4.5636e-05
919.125 4.56422e-05
919.25 4.53894e-05
919.375 4.51366e-05
919.5 4.51428e-05
919.625 4.51489e-05
919.75 4.48962e-05
919.875 4.46435e-05
920 4.46496e-05
920.125 4.46556e-05
920.25 4.44185e-05
920.375 4.41814e-05
920.5 4.41874e-05
920.625 4.41934e-05
920.75 4.39573e-05
920.875 4.37212e-05
921 4.37271e-05
921.125 4.3733e-05
921.25 4.34328e-05
921.375 4.31325e-05
921.5 4.31384e-05
921.625 4.31442e-05
921.75 4.28214e-05
921.875 4.24986e-05
922 4.25043e-05
922.125 4.25101e-05
922.25 4.22268e-05
922.375 4.19434e-05
922.5 4.19491e-05
922.625 4.19547e-05
922.75 4.17061e-05
922.875 4.14574e-05
923 4.1463e-05
923.125 4.14686e-05
923.25 4.14293e-05
923.375 4.13899e-05
923.5 4.13956e-05
923.625 4.14012e-05
923.75 4.18054e-05
923.875 4.22097e-05
924 4.22154e-05
924.125 4.22211e-05
924.25 4.24328e-05
924.375 4.26444e-05
924.5 4.26502e-05
924.625 4.2656e-05
924.75 4.1278e-05
924.875 3.98996e-05
925 3.9905e-05
925.125 3.99104e-05
925.25 3.85327e-05
925.375 3.71547e-05
925.5 3.71597e-05
925.625 3.71648e-05
925.75 3.84678e-05
925.875 3.97711e-05
926 3.97765e-05
926.125 3.97818e-05
926.25 4.14057e-05
926.375 4.30301e-05
926.5 4.30359e-05
926.625 4.30417e-05
926.75 4.38221e-05
926.875 4.46027e-05
927 4.46087e-05
927.125 4.46147e-05
927.25 4.49893e-05
927.375 4.5364e-05
927.5 4.53701e-05
927.625 4.53763e-05
927.75 4.51547e-05
927.875 4.49331e-05
928 4.49391e-05
928.125 4.49452e-05
928.25 4.40094e-05
928.375 4.30733e-05
928.5 4.30791e-05
928.625 4.30849e-05
928.75 4.24434e-05
928.875 4.18017e-05
929 4.18073e-05
929.125 4.18129e-05
929.25 4.21513e-05
929.375 4.24898e-05
929.5 4.24955e-05
929.625 4.25012e-05
929.75 4.28387e-05
929.875 4.31762e-05